"Time (MJD)" "Temp./1e3 (K)" "Temp. Err." "Radius/1e15 (cm)" "Radius Err." "Bol. Lum" "Bol. Err"
-5.492 40.000 12.530 0.105 0.022 43.303 43.219
-4.489 35.245 2.274 0.166 0.007 43.479 42.706
-3.487 32.221 1.791 0.197 0.008 43.476 42.629
-2.484 11.631 0.168 0.547 0.009 42.591 40.980
-1.482 10.701 0.133 0.624 0.010 42.561 40.852
-0.479 10.424 0.122 0.651 0.010 42.552 40.803
0.523 10.432 0.116 0.661 0.009 42.566 40.796
1.526 10.571 0.115 0.643 0.009 42.566 40.791
2.528 10.570 0.109 0.635 0.008 42.555 40.760
3.531 10.783 0.110 0.615 0.008 42.561 40.770
4.533 10.373 0.098 0.640 0.008 42.529 40.686
5.535 9.572 0.080 0.709 0.008 42.478 40.538
6.538 9.437 0.075 0.715 0.008 42.461 40.495
7.540 9.568 0.076 0.698 0.008 42.464 40.502
8.543 9.470 0.073 0.712 0.008 42.464 40.482
9.545 9.243 0.068 0.738 0.008 42.452 40.437
10.548 9.175 0.065 0.748 0.008 42.451 40.420
11.550 8.905 0.060 0.771 0.008 42.426 40.356
12.553 8.644 0.056 0.797 0.008 42.403 40.294
13.555 8.439 0.053 0.820 0.008 42.386 40.246
14.558 8.191 0.049 0.851 0.008 42.366 40.187
15.560 7.971 0.046 0.880 0.008 42.348 40.134
16.563 7.810 0.044 0.907 0.008 42.339 40.099
17.565 7.664 0.042 0.934 0.008 42.332 40.068
18.567 7.525 0.040 0.962 0.009 42.325 40.039
19.570 7.386 0.039 0.989 0.009 42.317 40.009
20.572 7.255 0.037 1.020 0.009 42.313 39.984
21.575 7.221 0.037 1.014 0.009 42.299 39.968
22.577 7.072 0.036 1.034 0.009 42.280 39.925
23.580 6.929 0.034 1.075 0.009 42.278 39.902
24.582 6.903 0.034 1.080 0.009 42.276 39.898
25.585 6.885 0.034 1.079 0.009 42.271 39.892
26.587 6.892 0.034 1.078 0.010 42.271 39.897
27.590 6.890 0.034 1.072 0.010 42.266 39.896
28.592 6.794 0.034 1.095 0.010 42.260 39.877
29.594 6.694 0.033 1.120 0.010 42.254 39.860
30.597 6.571 0.031 1.161 0.010 42.253 39.846
31.599 6.541 0.031 1.162 0.010 42.246 39.837
32.602 6.485 0.031 1.175 0.011 42.240 39.829
33.604 6.496 0.031 1.170 0.011 42.240 39.833
34.607 6.268 0.029 1.237 0.011 42.226 39.801
35.609 6.363 0.030 1.196 0.011 42.223 39.810
36.612 6.345 0.030 1.195 0.011 42.217 39.806
37.614 6.217 0.029 1.236 0.011 42.211 39.794
38.617 6.198 0.029 1.235 0.011 42.205 39.791
39.619 6.179 0.029 1.234 0.012 42.199 39.788
40.622 6.158 0.030 1.233 0.012 42.193 39.786
41.624 6.131 0.030 1.235 0.012 42.187 39.783
42.626 6.094 0.030 1.240 0.012 42.179 39.779
43.629 6.035 0.030 1.254 0.012 42.172 39.776
44.631 5.963 0.029 1.275 0.013 42.165 39.773
45.634 5.914 0.029 1.287 0.013 42.159 39.773
46.636 5.839 0.029 1.310 0.013 42.153 39.774
47.639 5.717 0.028 1.351 0.014 42.143 39.776
48.641 5.714 0.029 1.334 0.014 42.131 39.772
49.644 5.726 0.029 1.310 0.014 42.119 39.768
50.646 5.774 0.031 1.270 0.014 42.107 39.764
51.649 5.623 0.030 1.324 0.015 42.096 39.771
52.651 5.575 0.029 1.312 0.015 42.073 39.763
53.653 5.473 0.029 1.310 0.015 42.040 39.749
54.656 5.294 0.028 1.362 0.016 42.016 39.756
55.658 5.250 0.028 1.350 0.017 41.994 39.752
56.661 5.265 0.029 1.277 0.016 41.951 39.718
57.663 5.199 0.029 1.240 0.016 41.904 39.692
58.666 5.128 0.029 1.203 0.016 41.853 39.665
59.668 5.077 0.029 1.148 0.016 41.795 39.628
60.671 4.997 0.029 1.112 0.016 41.740 39.599
61.673 4.858 0.029 1.117 0.016 41.695 39.591
62.676 4.740 0.029 1.110 0.017 41.646 39.579
63.678 4.651 0.029 1.098 0.017 41.604 39.568
64.681 4.613 0.029 1.100 0.018 41.592 39.574
65.683 4.580 0.029 1.099 0.018 41.578 39.578
66.685 4.550 0.030 1.093 0.019 41.545 39.552
67.688 4.535 0.031 1.079 0.019 41.513 39.522
68.690 4.556 0.032 1.049 0.019 41.484 39.489
69.693 4.574 0.033 1.018 0.019 41.455 39.457
70.695 4.593 0.034 1.000 0.019 41.439 39.437
71.698 4.612 0.035 0.984 0.019 41.426 39.420
72.700 4.631 0.036 0.968 0.020 41.414 39.406
73.703 4.650 0.037 0.952 0.020 41.404 39.394
74.705 4.669 0.038 0.936 0.020 41.394 39.384
75.708 2.500 0.000 2.899 0.013 41.386 39.376
76.710 2.500 0.000 2.884 0.013 41.378 39.370
77.712 2.500 0.000 2.868 0.013 41.371 39.365
78.715 2.500 0.000 2.852 0.013 41.364 39.362
79.717 2.500 0.000 2.837 0.014 41.358 39.360
80.720 2.500 0.000 2.822 0.014 41.352 39.360
81.722 2.500 0.000 2.807 0.014 41.346 39.360
82.725 2.500 0.000 2.793 0.014 41.341 39.361
83.727 2.500 0.000 2.778 0.014 41.335 39.362
84.730 2.500 0.000 2.763 0.015 41.330 39.363
85.732 2.500 0.000 2.749 0.015 41.323 39.355
86.735 2.500 0.000 2.734 0.015 41.318 39.359
87.737 2.500 0.000 2.720 0.015 41.314 39.362
88.740 2.500 0.000 2.705 0.015 41.309 39.365
89.742 2.500 0.000 2.691 0.016 41.304 39.368
90.744 2.500 0.000 2.676 0.016 41.300 39.371
91.747 2.500 0.000 2.662 0.016 41.295 39.374
92.749 2.500 0.000 2.648 0.016 41.290 39.376
93.752 2.500 0.000 2.633 0.016 41.286 39.378
94.754 2.500 0.000 2.619 0.016 41.281 39.380
95.757 2.500 0.000 2.605 0.017 41.276 39.382
96.759 2.500 0.000 2.591 0.017 41.271 39.383
97.762 2.500 0.000 2.577 0.017 41.267 39.385
98.764 2.500 0.000 2.563 0.017 41.262 39.386
99.767 2.500 0.000 2.549 0.017 41.257 39.387
100.769 2.500 0.000 2.535 0.017 41.252 39.388
101.771 2.500 0.000 2.521 0.017 41.248 39.388
102.774 2.500 0.000 2.507 0.018 41.243 39.389
103.776 2.500 0.000 2.493 0.018 41.238 39.389
104.779 2.500 0.000 2.479 0.018 41.233 39.389
105.781 2.500 0.000 2.465 0.018 41.228 39.389
106.784 2.500 0.000 2.451 0.018 41.223 39.389
107.786 2.500 0.000 2.438 0.018 41.219 39.389
108.789 2.500 0.000 2.424 0.018 41.214 39.388
109.791 2.500 0.000 2.410 0.018 41.209 39.388
110.794 2.500 0.000 2.397 0.018 41.204 39.387
111.796 2.500 0.000 2.383 0.018 41.199 39.386
112.799 2.500 0.000 2.370 0.018 41.194 39.385
113.801 2.500 0.000 2.356 0.018 41.189 39.383
114.803 2.500 0.000 2.343 0.018 41.184 39.382
115.806 2.500 0.000 2.330 0.019 41.179 39.380
116.808 2.500 0.000 2.316 0.019 41.174 39.378
117.811 2.500 0.000 2.303 0.019 41.169 39.376
118.813 2.500 0.000 2.290 0.019 41.164 39.374
119.816 2.500 0.000 2.277 0.019 41.159 39.372
120.818 2.500 0.000 2.263 0.019 41.154 39.370
121.821 2.500 0.000 2.250 0.019 41.149 39.367
122.823 2.500 0.000 2.237 0.019 41.144 39.365
123.826 2.500 0.000 2.224 0.019 41.139 39.362
124.828 2.500 0.000 2.212 0.019 41.134 39.359
125.830 2.500 0.000 2.199 0.019 41.129 39.356
126.833 2.500 0.000 2.186 0.019 41.124 39.353
127.835 2.500 0.000 2.173 0.018 41.119 39.349
128.838 2.500 0.000 2.160 0.018 41.114 39.346
129.840 2.500 0.000 2.148 0.018 41.109 39.342
130.843 2.500 0.000 2.135 0.018 41.103 39.339
131.845 2.500 0.000 2.123 0.018 41.098 39.335
132.848 2.500 0.000 2.110 0.018 41.093 39.331
133.850 2.500 0.000 2.098 0.018 41.088 39.327
134.853 2.500 0.000 2.085 0.018 41.083 39.323
135.855 2.500 0.000 2.073 0.018 41.078 39.318
136.858 2.500 0.000 2.061 0.018 41.073 39.314
137.860 2.500 0.000 2.049 0.018 41.068 39.309
138.862 2.500 0.000 2.037 0.018 41.062 39.304
139.865 2.500 0.000 2.025 0.018 41.057 39.300
140.867 2.500 0.000 2.013 0.018 41.052 39.295
141.870 2.500 0.000 2.001 0.017 41.047 39.289
142.872 2.500 0.000 1.989 0.017 41.042 39.284
143.875 2.500 0.000 1.977 0.017 41.037 39.279
144.877 2.500 0.000 1.965 0.017 41.031 39.274
145.880 2.500 0.000 1.953 0.017 41.026 39.268
146.882 2.500 0.000 1.942 0.017 41.021 39.262
147.885 2.500 0.000 1.930 0.017 41.016 39.256
148.887 2.500 0.000 1.919 0.017 41.011 39.251
149.889 2.500 0.000 1.907 0.017 41.005 39.244
150.892 2.500 0.000 1.896 0.016 41.000 39.238
151.894 2.500 0.000 1.885 0.016 40.995 39.232
152.897 2.500 0.000 1.873 0.016 40.990 39.226
153.899 2.500 0.000 1.862 0.016 40.985 39.219
154.902 2.500 0.000 1.851 0.016 40.979 39.212
155.904 2.500 0.000 1.840 0.016 40.974 39.206
156.907 2.500 0.000 1.829 0.016 40.969 39.199
157.909 2.500 0.000 1.818 0.015 40.964 39.192
158.912 2.500 0.000 1.807 0.015 40.958 39.185
159.914 2.500 0.000 1.794 0.015 40.952 39.176
160.917 2.500 0.000 1.784 0.015 40.947 39.169
161.919 2.500 0.000 1.773 0.015 40.942 39.161
162.921 2.500 0.000 1.762 0.015 40.937 39.154
163.924 2.500 0.000 1.752 0.014 40.932 39.146
164.926 2.500 0.000 1.741 0.014 40.926 39.138
165.929 2.500 0.000 1.731 0.014 40.921 39.130
166.931 2.500 0.000 1.720 0.014 40.916 39.122
167.934 2.500 0.000 1.710 0.014 40.911 39.114
168.936 2.500 0.000 1.700 0.013 40.905 39.106
169.939 2.500 0.000 1.690 0.013 40.900 39.098
170.941 2.500 0.000 1.679 0.013 40.895 39.089
171.944 2.500 0.000 1.669 0.013 40.890 39.081
172.946 2.500 0.000 1.659 0.013 40.884 39.072
173.948 2.500 0.000 1.649 0.013 40.879 39.063
174.951 2.500 0.000 1.639 0.012 40.874 39.054
175.953 2.500 0.000 1.630 0.012 40.869 39.046
176.956 2.500 0.000 1.620 0.012 40.863 39.037
177.958 2.500 0.000 1.609 0.012 40.858 39.027
178.961 2.500 0.000 1.600 0.012 40.853 39.018
179.963 2.500 0.000 1.589 0.012 40.847 39.008
180.966 2.500 0.000 1.579 0.011 40.841 38.998
181.968 2.500 0.000 1.570 0.011 40.836 38.989
182.971 2.500 0.000 1.562 0.011 40.832 38.981
183.973 2.500 0.000 1.554 0.011 40.827 38.971
184.976 2.500 0.000 1.546 0.011 40.823 38.963
185.978 2.500 0.000 1.538 0.011 40.818 38.954
186.980 2.500 0.000 1.530 0.010 40.814 38.945
187.983 2.500 0.000 1.521 0.010 40.809 38.936
188.985 2.500 0.000 1.511 0.010 40.803 38.926
189.988 2.500 0.000 1.502 0.010 40.798 38.916
190.990 2.500 0.000 1.493 0.010 40.793 38.907
191.993 2.500 0.000 1.484 0.010 40.787 38.897
192.995 2.500 0.000 1.475 0.009 40.782 38.887
193.998 2.500 0.000 1.466 0.009 40.777 38.878
195.000 2.500 0.000 1.457 0.009 40.771 38.868
196.003 2.500 0.000 1.449 0.009 40.767 38.859
197.005 2.500 0.000 1.442 0.009 40.763 38.851
198.007 2.500 0.000 1.435 0.009 40.758 38.842
199.010 2.500 0.000 1.425 0.009 40.752 38.831
200.012 2.500 0.000 1.415 0.008 40.746 38.820
201.015 2.500 0.000 1.404 0.008 40.739 38.809
202.017 2.500 0.000 1.393 0.008 40.733 38.799
203.020 2.500 0.000 1.385 0.008 40.727 38.789
204.022 2.500 0.000 1.377 0.008 40.723 38.780
205.025 2.500 0.000 1.370 0.008 40.718 38.771
206.027 2.500 0.000 1.362 0.008 40.713 38.762
207.030 2.500 0.000 1.354 0.008 40.708 38.753
208.032 2.500 0.000 1.345 0.007 40.702 38.743
209.035 2.500 0.000 1.335 0.007 40.695 38.732
210.037 2.500 0.000 1.325 0.007 40.689 38.722
211.039 2.500 0.000 1.315 0.007 40.682 38.711
212.042 2.500 0.000 1.305 0.007 40.676 38.701
213.044 2.500 0.000 1.301 0.007 40.673 38.694
214.047 2.500 0.000 1.300 0.007 40.672 38.690
215.049 2.500 0.000 1.290 0.007 40.666 38.679
216.052 2.500 0.000 1.276 0.007 40.656 38.666
217.054 2.500 0.000 1.268 0.006 40.651 38.658
218.057 2.500 0.000 1.255 0.006 40.642 38.645
219.059 2.500 0.000 1.236 0.006 40.628 38.628
220.062 2.500 0.000 1.222 0.006 40.619 38.615
221.064 2.500 0.000 1.212 0.006 40.611 38.604
222.066 2.500 0.000 1.208 0.006 40.609 38.598
223.069 2.500 0.000 1.205 0.006 40.607 38.594
224.071 2.500 0.000 1.203 0.006 40.605 38.589
225.074 2.500 0.000 1.200 0.006 40.603 38.584
226.076 2.500 0.000 1.197 0.006 40.601 38.580
227.079 2.500 0.000 1.195 0.006 40.599 38.575
228.081 2.500 0.000 1.187 0.006 40.593 38.567
229.084 2.500 0.000 1.180 0.006 40.589 38.561
230.086 2.500 0.000 1.173 0.005 40.583 38.553
231.089 2.500 0.000 1.165 0.005 40.577 38.545
232.091 2.500 0.000 1.157 0.005 40.571 38.538
233.093 2.500 0.000 1.149 0.005 40.565 38.530
234.096 2.500 0.000 1.143 0.005 40.561 38.525
235.098 2.500 0.000 1.137 0.005 40.556 38.519
236.101 2.500 0.000 1.132 0.005 40.552 38.514
237.103 2.500 0.000 1.124 0.005 40.546 38.507
238.106 2.500 0.000 1.118 0.005 40.542 38.502
239.108 2.500 0.000 1.111 0.005 40.536 38.497
240.111 2.500 0.000 1.096 0.005 40.525 38.485
241.113 2.500 0.000 1.082 0.005 40.513 38.474
242.116 2.500 0.000 1.071 0.005 40.504 38.465
243.118 2.500 0.000 1.060 0.005 40.495 38.458
244.121 2.500 0.000 1.049 0.005 40.486 38.450
245.123 2.500 0.000 1.041 0.005 40.479 38.444
246.125 2.500 0.000 1.040 0.005 40.478 38.444
247.128 2.500 0.000 1.038 0.005 40.477 38.444
248.130 2.500 0.000 1.030 0.005 40.470 38.439
249.133 2.500 0.000 1.020 0.005 40.462 38.433
250.135 2.500 0.000 1.011 0.005 40.454 38.428
251.138 2.500 0.000 1.002 0.005 40.447 38.423
252.140 2.500 0.000 0.994 0.005 40.439 38.418
253.143 2.500 0.000 0.985 0.005 40.431 38.413
254.145 2.500 0.000 0.976 0.005 40.423 38.408
255.148 2.500 0.000 0.968 0.005 40.416 38.404
256.150 2.500 0.000 0.959 0.005 40.409 38.399
257.152 2.500 0.000 0.951 0.005 40.401 38.395
258.155 2.500 0.000 0.943 0.005 40.393 38.391
259.157 2.500 0.000 0.934 0.005 40.386 38.387
260.160 2.500 0.000 0.926 0.005 40.378 38.383
261.162 2.500 0.000 0.917 0.005 40.370 38.379
262.165 2.500 0.000 0.908 0.005 40.361 38.374
263.167 2.500 0.000 0.898 0.005 40.351 38.368
264.170 2.500 0.000 0.890 0.005 40.343 38.365
265.172 2.500 0.000 0.882 0.005 40.335 38.361
266.175 2.500 0.000 0.874 0.005 40.328 38.358
267.177 2.500 0.000 0.866 0.005 40.320 38.355
268.180 2.500 0.000 0.859 0.005 40.312 38.352
269.182 2.500 0.000 0.852 0.005 40.306 38.350
270.184 2.500 0.000 0.848 0.005 40.301 38.351
271.187 2.500 0.000 0.843 0.005 40.296 38.351
272.189 2.500 0.000 0.835 0.005 40.288 38.348
273.192 2.500 0.000 0.827 0.005 40.279 38.344
274.194 2.500 0.000 0.818 0.005 40.270 38.340
275.197 2.500 0.000 0.810 0.005 40.261 38.337
276.199 2.500 0.000 0.801 0.005 40.252 38.333
277.202 2.500 0.000 0.793 0.005 40.243 38.329
278.204 2.500 0.000 0.784 0.005 40.233 38.326
279.207 2.500 0.000 0.757 0.005 40.203 38.316
280.209 2.500 0.000 0.754 0.005 40.199 38.317
281.211 2.500 0.000 0.750 0.005 40.195 38.318
282.214 2.500 0.000 0.746 0.005 40.190 38.320
283.216 2.500 0.000 0.741 0.005 40.185 38.320
284.219 2.500 0.000 0.736 0.005 40.178 38.319
285.221 2.500 0.000 0.729 0.005 40.170 38.317
286.224 2.500 0.000 0.719 0.005 40.158 38.338
287.226 2.500 0.000 0.710 0.005 40.147 38.332
288.229 2.500 0.000 0.706 0.005 40.142 38.334
289.231 2.500 0.000 0.703 0.006 40.138 38.336
290.234 2.500 0.000 0.699 0.006 40.134 38.337
291.236 2.500 0.000 0.696 0.006 40.129 38.339
292.239 2.500 0.000 0.692 0.006 40.125 38.341
293.241 2.500 0.000 0.689 0.006 40.121 38.343
294.243 2.500 0.000 0.686 0.006 40.117 38.345
295.246 2.500 0.000 0.682 0.006 40.113 38.347
296.248 2.500 0.000 0.678 0.006 40.107 38.348
297.251 2.500 0.000 0.674 0.006 40.102 38.349
298.253 2.500 0.000 0.670 0.006 40.097 38.351
299.256 2.500 0.000 0.666 0.006 40.092 38.352
300.258 2.500 0.000 0.663 0.006 40.087 38.353
301.261 2.500 0.000 0.643 0.006 40.061 38.362
302.263 2.500 0.000 0.641 0.006 40.058 38.365
303.266 2.500 0.000 0.637 0.007 40.053 38.365
304.268 2.500 0.000 0.631 0.007 40.044 38.362
305.270 2.500 0.000 0.624 0.007 40.036 38.360
306.273 2.500 0.000 0.634 0.008 40.048 38.444
307.275 2.500 0.000 0.630 0.008 40.044 38.444
308.278 2.500 0.000 0.627 0.008 40.039 38.443
309.280 2.500 0.000 0.624 0.008 40.035 38.443
310.283 2.500 0.000 0.621 0.008 40.030 38.443
311.285 2.500 0.000 0.617 0.008 40.026 38.443
312.288 2.500 0.000 0.614 0.008 40.021 38.442
313.290 2.500 0.000 0.611 0.008 40.016 38.442
314.293 2.500 0.000 0.607 0.008 40.010 38.440
315.295 2.500 0.000 0.603 0.008 40.005 38.439
316.298 2.500 0.000 0.599 0.008 39.999 38.438
317.300 2.500 0.000 0.595 0.008 39.993 38.436
318.302 2.500 0.000 0.591 0.008 39.987 38.435
319.305 2.500 0.000 0.587 0.008 39.981 38.433
320.307 2.500 0.000 0.583 0.008 39.975 38.432
321.310 2.500 0.000 0.579 0.008 39.970 38.430
322.312 2.500 0.000 0.575 0.008 39.964 38.429
323.315 2.500 0.000 0.571 0.008 39.957 38.427
324.317 2.500 0.000 0.566 0.008 39.949 38.424
325.320 2.500 0.000 0.560 0.008 39.942 38.420
326.322 2.500 0.000 0.556 0.008 39.934 38.417
327.325 2.500 0.000 0.551 0.008 39.926 38.414
328.327 2.500 0.000 0.546 0.008 39.918 38.411
329.329 2.500 0.000 0.541 0.008 39.911 38.407
330.332 2.500 0.000 0.536 0.009 39.903 38.404
331.334 2.500 0.000 0.531 0.009 39.895 38.401
332.337 2.500 0.000 0.526 0.009 39.887 38.398
333.339 2.500 0.000 0.522 0.009 39.879 38.395
334.342 2.500 0.000 0.518 0.009 39.873 38.393
335.344 2.500 0.000 0.515 0.009 39.869 38.393
336.347 2.500 0.000 0.513 0.009 39.864 38.394
337.349 2.500 0.000 0.510 0.009 39.860 38.394
338.352 2.500 0.000 0.508 0.009 39.856 38.394
339.354 2.500 0.000 0.505 0.009 39.851 38.395
340.357 2.500 0.000 0.503 0.009 39.847 38.395
341.359 2.500 0.000 0.500 0.009 39.842 38.395
342.361 2.500 0.000 0.497 0.009 39.837 38.395
343.364 2.500 0.000 0.494 0.009 39.833 38.395
344.366 2.500 0.000 0.492 0.009 39.828 38.395
345.369 2.500 0.000 0.489 0.009 39.823 38.395
346.371 2.500 0.000 0.486 0.009 39.818 38.395
347.374 2.500 0.000 0.483 0.009 39.813 38.395
348.376 2.500 0.000 0.481 0.009 39.808 38.395
349.379 2.500 0.000 0.478 0.009 39.803 38.395
350.381 2.500 0.000 0.469 0.009 39.786 38.383
351.384 2.500 0.000 0.458 0.010 39.766 38.410
352.386 2.500 0.000 0.458 0.010 39.766 38.415
353.388 2.500 0.000 0.454 0.010 39.759 38.414
354.391 2.500 0.000 0.448 0.010 39.748 38.407
355.393 2.500 0.000 0.443 0.010 39.736 38.401
356.396 2.500 0.000 0.437 0.010 39.725 38.394
357.398 2.500 0.000 0.431 0.010 39.713 38.388
358.401 2.500 0.000 0.425 0.010 39.702 38.381
359.403 2.500 0.000 0.420 0.010 39.691 38.375
360.406 2.500 0.000 0.414 0.010 39.679 38.369
361.408 2.500 0.000 0.409 0.010 39.668 38.362
362.411 2.500 0.000 0.404 0.010 39.657 38.356
363.413 2.500 0.000 0.398 0.010 39.645 38.350
364.416 2.500 0.000 0.352 0.010 39.537 38.309
365.418 2.500 0.000 0.350 0.010 39.534 38.311
366.420 2.500 0.000 0.349 0.011 39.530 38.313
367.423 2.500 0.000 0.348 0.011 39.527 38.314
368.425 2.500 0.000 0.346 0.011 39.523 38.316
369.428 2.500 0.000 0.345 0.011 39.520 38.318
370.430 2.500 0.000 0.343 0.011 39.516 38.320
371.433 2.500 0.000 0.342 0.011 39.513 38.321
372.435 2.500 0.000 0.341 0.011 39.509 38.323
373.438 2.500 0.000 0.339 0.011 39.506 38.324
374.440 2.500 0.000 0.338 0.011 39.502 38.326
375.443 2.500 0.000 0.336 0.011 39.498 38.328
376.445 2.500 0.000 0.335 0.011 39.495 38.329
377.447 2.500 0.000 0.334 0.012 39.491 38.331
378.450 2.500 0.000 0.332 0.012 39.487 38.332
379.452 2.500 0.000 0.331 0.012 39.484 38.333
380.455 2.500 0.000 0.329 0.012 39.480 38.335
381.457 2.500 0.000 0.328 0.012 39.476 38.336
382.460 2.500 0.000 0.327 0.012 39.472 38.338
383.462 2.500 0.000 0.349 0.018 39.530 38.542
384.465 2.500 0.000 0.346 0.018 39.522 38.539
