"Time (MJD)" PAN-STARRS/PS1.g PAN-STARRS/PS1.g_err PAN-STARRS/PS1.i PAN-STARRS/PS1.i_err PAN-STARRS/PS1.r PAN-STARRS/PS1.r_err PAN-STARRS/PS1.z PAN-STARRS/PS1.z_err "Temp./1e3 (K)" "Temp. Err." "Radius/1e15 (cm)" "Radius Err." "Log10(Bol. Lum)" "Log10(Bol. Err)"
-19.000 -18.136 -0.073 -18.116 -0.070 -18.198 -0.082 -18.151 -0.137 8.158 0.465 1.423 0.127 42.806 41.428
-18.900 -18.158 -0.072 -18.139 -0.069 -18.221 -0.081 -18.172 -0.136 8.180 0.457 1.432 0.124 42.816 41.327
-18.800 -18.181 -0.071 -18.161 -0.068 -18.243 -0.080 -18.193 -0.135 8.203 0.460 1.441 0.125 42.826 41.511
-18.700 -18.203 -0.070 -18.184 -0.067 -18.266 -0.079 -18.214 -0.133 8.204 0.450 1.454 0.123 42.834 41.565
-18.600 -18.225 -0.069 -18.206 -0.066 -18.288 -0.077 -18.234 -0.132 8.197 0.437 1.473 0.123 42.844 41.240
-18.500 -18.246 -0.067 -18.228 -0.065 -18.309 -0.076 -18.254 -0.130 8.188 0.443 1.490 0.125 42.852 41.603
-18.400 -18.268 -0.066 -18.250 -0.064 -18.331 -0.075 -18.274 -0.129 8.193 0.426 1.503 0.122 42.860 41.448
-18.300 -18.289 -0.065 -18.272 -0.063 -18.352 -0.074 -18.294 -0.128 8.222 0.443 1.509 0.125 42.870 41.631
-18.200 -18.310 -0.064 -18.294 -0.063 -18.374 -0.073 -18.314 -0.126 8.214 0.420 1.527 0.122 42.879 41.455
-18.100 -18.331 -0.063 -18.315 -0.062 -18.395 -0.072 -18.333 -0.125 8.210 0.404 1.543 0.119 42.887 41.352
-18.000 -18.352 -0.062 -18.336 -0.061 -18.415 -0.071 -18.353 -0.124 8.212 0.398 1.558 0.118 42.895 41.431
-17.900 -18.372 -0.061 -18.357 -0.060 -18.436 -0.070 -18.372 -0.122 8.202 0.399 1.575 0.120 42.903 41.523
-17.800 -18.392 -0.060 -18.378 -0.059 -18.456 -0.069 -18.390 -0.121 8.220 0.388 1.583 0.116 42.912 41.555
-17.700 -18.412 -0.059 -18.399 -0.058 -18.476 -0.068 -18.409 -0.120 8.237 0.383 1.593 0.114 42.921 41.463
-17.600 -18.432 -0.058 -18.419 -0.057 -18.496 -0.067 -18.427 -0.118 8.230 0.384 1.610 0.117 42.928 41.440
-17.500 -18.451 -0.057 -18.439 -0.056 -18.516 -0.066 -18.445 -0.117 8.229 0.375 1.626 0.116 42.936 41.473
-17.400 -18.470 -0.056 -18.459 -0.056 -18.535 -0.065 -18.463 -0.116 8.242 0.376 1.636 0.116 42.945 41.482
-17.300 -18.489 -0.056 -18.478 -0.055 -18.555 -0.064 -18.480 -0.115 8.263 0.370 1.644 0.116 42.953 41.535
-17.200 -18.508 -0.055 -18.498 -0.054 -18.574 -0.064 -18.498 -0.113 8.245 0.358 1.664 0.113 42.960 41.419
-17.100 -18.527 -0.054 -18.517 -0.053 -18.592 -0.063 -18.515 -0.112 8.252 0.354 1.677 0.112 42.968 41.519
-17.000 -18.545 -0.053 -18.536 -0.053 -18.611 -0.062 -18.532 -0.111 8.241 0.348 1.695 0.111 42.975 41.252
-16.900 -18.563 -0.052 -18.554 -0.052 -18.629 -0.061 -18.548 -0.110 8.257 0.351 1.704 0.114 42.983 41.502
-16.800 -18.581 -0.051 -18.573 -0.051 -18.647 -0.060 -18.564 -0.108 8.247 0.339 1.721 0.110 42.990 41.339
-16.700 -18.598 -0.051 -18.591 -0.050 -18.665 -0.059 -18.580 -0.107 8.250 0.332 1.733 0.109 42.996 41.579
-16.600 -18.615 -0.050 -18.609 -0.050 -18.682 -0.059 -18.596 -0.106 8.252 0.331 1.747 0.109 43.004 41.499
-16.500 -18.632 -0.049 -18.626 -0.049 -18.699 -0.058 -18.612 -0.105 8.265 0.323 1.757 0.107 43.011 41.521
-16.400 -18.649 -0.048 -18.643 -0.049 -18.716 -0.057 -18.627 -0.104 8.256 0.314 1.773 0.106 43.017 41.426
-16.300 -18.665 -0.048 -18.661 -0.048 -18.733 -0.057 -18.642 -0.103 8.261 0.315 1.785 0.106 43.024 41.526
-16.200 -18.682 -0.047 -18.677 -0.047 -18.749 -0.056 -18.656 -0.101 8.256 0.308 1.801 0.105 43.031 41.484
-16.100 -18.697 -0.046 -18.694 -0.047 -18.766 -0.055 -18.671 -0.100 8.250 0.319 1.816 0.110 43.037 41.629
-16.000 -18.713 -0.046 -18.710 -0.046 -18.782 -0.054 -18.685 -0.099 8.271 0.311 1.823 0.107 43.045 41.655
-15.900 -18.728 -0.045 -18.726 -0.046 -18.797 -0.054 -18.698 -0.098 8.271 0.304 1.837 0.106 43.051 41.567
-15.800 -18.743 -0.044 -18.742 -0.045 -18.812 -0.053 -18.712 -0.097 8.260 0.295 1.852 0.103 43.056 41.586
-15.700 -18.758 -0.044 -18.757 -0.044 -18.828 -0.053 -18.725 -0.096 8.278 0.302 1.860 0.106 43.064 41.610
-15.600 -18.772 -0.043 -18.772 -0.044 -18.842 -0.052 -18.738 -0.095 8.265 0.288 1.876 0.103 43.068 41.526
-15.500 -18.786 -0.043 -18.787 -0.043 -18.857 -0.051 -18.750 -0.094 8.260 0.284 1.890 0.102 43.074 41.380
-15.400 -18.800 -0.042 -18.801 -0.043 -18.871 -0.051 -18.763 -0.093 8.271 0.285 1.899 0.102 43.080 41.622
-15.300 -18.813 -0.041 -18.815 -0.042 -18.885 -0.050 -18.775 -0.092 8.287 0.310 1.905 0.110 43.086 nan
-15.200 -18.826 -0.041 -18.829 -0.042 -18.898 -0.050 -18.786 -0.091 8.269 0.282 1.923 0.102 43.091 41.708
-15.100 -18.839 -0.040 -18.843 -0.042 -18.912 -0.049 -18.798 -0.090 8.278 0.271 1.931 0.099 43.096 41.444
-15.000 -18.852 -0.040 -18.856 -0.041 -18.925 -0.049 -18.809 -0.089 8.279 0.267 1.941 0.098 43.101 41.479
-14.900 -18.864 -0.040 -18.869 -0.041 -18.937 -0.048 -18.819 -0.088 8.268 0.268 1.958 0.100 43.106 41.557
-14.800 -18.875 -0.039 -18.881 -0.040 -18.950 -0.048 -18.830 -0.087 8.265 0.264 1.970 0.099 43.111 41.498
-14.700 -18.887 -0.039 -18.893 -0.040 -18.962 -0.047 -18.840 -0.086 8.270 0.262 1.980 0.098 43.116 41.526
-14.600 -18.898 -0.038 -18.905 -0.039 -18.974 -0.047 -18.849 -0.086 8.275 0.255 1.988 0.096 43.121 41.474
-14.500 -18.909 -0.038 -18.917 -0.039 -18.985 -0.047 -18.859 -0.085 8.283 0.288 1.994 0.108 43.125 nan
-14.400 -18.919 -0.037 -18.929 -0.039 -18.997 -0.046 -18.868 -0.084 8.257 0.248 2.014 0.095 43.128 41.477
-14.300 -18.929 -0.037 -18.940 -0.038 -19.008 -0.046 -18.877 -0.083 8.255 0.237 2.024 0.091 43.132 nan
-14.200 -18.939 -0.037 -18.951 -0.038 -19.018 -0.045 -18.885 -0.082 8.270 0.263 2.029 0.101 43.137 nan
-14.100 -18.949 -0.036 -18.961 -0.038 -19.029 -0.045 -18.894 -0.082 8.261 0.244 2.042 0.095 43.141 41.520
-14.000 -18.958 -0.036 -18.971 -0.037 -19.039 -0.045 -18.902 -0.081 8.248 0.242 2.055 0.094 43.144 41.627
-13.900 -18.967 -0.036 -18.982 -0.037 -19.049 -0.044 -18.910 -0.080 8.250 0.236 2.064 0.094 43.148 41.490
-13.800 -18.976 -0.035 -18.991 -0.037 -19.059 -0.044 -18.917 -0.080 8.247 0.233 2.075 0.094 43.152 41.522
-13.700 -18.984 -0.035 -19.001 -0.036 -19.069 -0.044 -18.924 -0.079 8.257 0.236 2.080 0.093 43.156 41.458
-13.600 -18.993 -0.034 -19.010 -0.036 -19.078 -0.043 -18.932 -0.078 8.248 0.228 2.091 0.091 43.159 41.495
-13.500 -19.000 -0.034 -19.020 -0.036 -19.087 -0.043 -18.938 -0.078 8.259 0.229 2.095 0.092 43.163 41.533
-13.400 -19.008 -0.034 -19.028 -0.035 -19.096 -0.043 -18.945 -0.077 8.236 0.226 2.112 0.092 43.165 41.433
-13.300 -19.016 -0.034 -19.037 -0.035 -19.105 -0.042 -18.951 -0.077 8.240 0.225 2.118 0.092 43.169 41.472
-13.200 -19.023 -0.033 -19.046 -0.035 -19.113 -0.042 -18.958 -0.076 8.223 0.220 2.134 0.091 43.171 41.636
-13.100 -19.030 -0.033 -19.054 -0.034 -19.122 -0.042 -18.964 -0.076 8.233 0.216 2.136 0.088 43.174 41.164
-13.000 -19.036 -0.033 -19.062 -0.034 -19.130 -0.042 -18.969 -0.075 8.218 0.217 2.150 0.089 43.177 41.549
-12.900 -19.043 -0.032 -19.070 -0.034 -19.138 -0.041 -18.975 -0.075 8.220 0.219 2.157 0.091 43.180 41.567
-12.800 -19.049 -0.032 -19.078 -0.034 -19.146 -0.041 -18.980 -0.074 8.210 0.212 2.168 0.088 43.182 41.493
-12.700 -19.055 -0.032 -19.085 -0.033 -19.154 -0.041 -18.986 -0.074 8.212 0.213 2.172 0.089 43.184 41.546
-12.600 -19.061 -0.032 -19.093 -0.033 -19.161 -0.041 -18.991 -0.073 8.202 0.212 2.185 0.090 43.187 41.458
-12.500 -19.066 -0.031 -19.100 -0.033 -19.169 -0.040 -18.995 -0.073 8.189 0.211 2.196 0.090 43.189 41.534
-12.400 -19.072 -0.031 -19.107 -0.033 -19.176 -0.040 -19.000 -0.072 8.190 0.206 2.202 0.089 43.191 41.205
-12.300 -19.077 -0.031 -19.114 -0.032 -19.183 -0.040 -19.005 -0.072 8.170 0.206 2.216 0.089 43.193 41.484
-12.200 -19.082 -0.031 -19.121 -0.032 -19.190 -0.040 -19.009 -0.072 8.175 0.204 2.221 0.088 43.196 41.486
-12.100 -19.087 -0.031 -19.127 -0.032 -19.197 -0.039 -19.013 -0.071 8.161 0.201 2.233 0.088 43.197 41.413
-12.000 -19.091 -0.030 -19.134 -0.032 -19.204 -0.039 -19.018 -0.071 8.160 0.202 2.240 0.088 43.200 41.430
-11.900 -19.096 -0.030 -19.140 -0.032 -19.210 -0.039 -19.022 -0.071 8.148 0.199 2.250 0.088 43.202 41.496
-11.800 -19.100 -0.030 -19.147 -0.031 -19.217 -0.039 -19.026 -0.070 8.150 0.219 2.255 0.097 43.204 nan
-11.700 -19.104 -0.030 -19.153 -0.031 -19.224 -0.039 -19.030 -0.070 8.140 0.192 2.265 0.086 43.206 41.458
-11.600 -19.108 -0.029 -19.159 -0.031 -19.230 -0.038 -19.033 -0.070 8.113 0.191 2.282 0.086 43.206 41.533
-11.500 -19.112 -0.029 -19.165 -0.031 -19.236 -0.038 -19.037 -0.070 8.110 0.189 2.290 0.085 43.208 41.490
-11.400 -19.116 -0.029 -19.171 -0.031 -19.243 -0.038 -19.041 -0.069 8.098 0.189 2.301 0.086 43.210 41.473
-11.300 -19.120 -0.029 -19.177 -0.030 -19.249 -0.038 -19.045 -0.069 8.080 0.185 2.314 0.085 43.211 41.363
-11.200 -19.124 -0.029 -19.182 -0.030 -19.255 -0.038 -19.048 -0.069 8.084 0.191 2.318 0.088 43.214 41.594
-11.100 -19.128 -0.028 -19.188 -0.030 -19.262 -0.038 -19.052 -0.069 8.073 0.183 2.328 0.085 43.215 41.501
-11.000 -19.131 -0.028 -19.194 -0.030 -19.268 -0.037 -19.055 -0.069 8.072 0.199 2.334 0.093 43.217 nan
-10.900 -19.135 -0.028 -19.199 -0.030 -19.274 -0.037 -19.059 -0.068 8.049 0.181 2.349 0.086 43.218 nan
-10.800 -19.138 -0.028 -19.205 -0.030 -19.280 -0.037 -19.062 -0.068 8.038 0.177 2.360 0.085 43.219 41.548
-10.700 -19.142 -0.027 -19.210 -0.029 -19.286 -0.037 -19.066 -0.068 8.027 0.170 2.370 0.082 43.220 41.264
-10.600 -19.145 -0.027 -19.216 -0.029 -19.293 -0.037 -19.070 -0.068 8.020 0.174 2.378 0.085 43.222 41.062
-10.500 -19.149 -0.027 -19.221 -0.029 -19.299 -0.037 -19.073 -0.068 8.013 0.173 2.388 0.084 43.224 41.486
-10.400 -19.152 -0.027 -19.227 -0.029 -19.305 -0.037 -19.077 -0.068 8.002 0.167 2.397 0.082 43.225 41.215
-10.300 -19.156 -0.026 -19.232 -0.029 -19.311 -0.036 -19.080 -0.067 7.985 0.165 2.411 0.081 43.226 40.355
-10.200 -19.160 -0.026 -19.238 -0.029 -19.317 -0.036 -19.084 -0.067 7.976 0.164 2.420 0.083 43.228 nan
-10.100 -19.163 -0.026 -19.243 -0.029 -19.324 -0.036 -19.088 -0.067 7.965 0.168 2.432 0.084 43.229 41.507
-10.000 -19.167 -0.026 -19.249 -0.029 -19.330 -0.036 -19.092 -0.067 7.948 0.164 2.445 0.083 43.231 41.362
-9.900 -19.170 -0.025 -19.254 -0.029 -19.336 -0.036 -19.095 -0.067 7.936 0.161 2.457 0.083 43.232 41.201
-9.800 -19.174 -0.025 -19.260 -0.029 -19.342 -0.036 -19.099 -0.067 7.925 0.164 2.468 0.085 43.234 41.481
-9.700 -19.177 -0.025 -19.265 -0.029 -19.349 -0.036 -19.103 -0.067 7.920 0.158 2.475 0.082 43.235 nan
-9.600 -19.180 -0.025 -19.270 -0.028 -19.355 -0.036 -19.107 -0.067 7.905 0.156 2.488 0.083 43.236 41.386
-9.500 -19.184 -0.024 -19.276 -0.028 -19.361 -0.036 -19.111 -0.067 7.898 0.156 2.498 0.083 43.238 41.275
-9.400 -19.187 -0.024 -19.281 -0.028 -19.367 -0.036 -19.115 -0.067 7.891 0.156 2.507 0.083 43.240 41.522
-9.300 -19.191 -0.024 -19.286 -0.028 -19.373 -0.036 -19.119 -0.067 7.883 0.175 2.516 0.094 43.241 nan
-9.200 -19.194 -0.024 -19.291 -0.028 -19.379 -0.036 -19.122 -0.067 7.854 0.149 2.536 0.081 43.242 41.102
-9.100 -19.197 -0.024 -19.296 -0.028 -19.385 -0.036 -19.126 -0.067 7.850 0.154 2.544 0.084 43.243 41.413
-9.000 -19.200 -0.023 -19.301 -0.029 -19.390 -0.036 -19.130 -0.067 7.832 0.150 2.560 0.084 43.245 41.295
-8.900 -19.204 -0.023 -19.306 -0.029 -19.396 -0.036 -19.134 -0.067 7.829 0.152 2.566 0.085 43.246 41.280
-8.800 -19.207 -0.023 -19.311 -0.029 -19.402 -0.036 -19.138 -0.067 7.818 0.147 2.577 0.083 43.247 41.381
-8.700 -19.210 -0.023 -19.316 -0.029 -19.407 -0.036 -19.141 -0.067 7.807 0.147 2.587 0.083 43.249 41.395
-8.600 -19.213 -0.022 -19.320 -0.029 -19.413 -0.036 -19.145 -0.067 7.807 0.146 2.592 0.083 43.250 41.048
-8.500 -19.216 -0.022 -19.325 -0.029 -19.418 -0.036 -19.149 -0.067 7.786 0.144 2.609 0.084 43.251 41.234
-8.400 -19.218 -0.022 -19.329 -0.029 -19.423 -0.036 -19.153 -0.067 7.789 0.143 2.612 0.082 43.253 41.387
-8.300 -19.221 -0.022 -19.334 -0.029 -19.428 -0.036 -19.156 -0.067 7.770 0.141 2.626 0.083 43.253 41.315
-8.200 -19.224 -0.022 -19.338 -0.029 -19.433 -0.036 -19.160 -0.067 7.755 0.142 2.640 0.084 43.254 41.319
-8.100 -19.226 -0.022 -19.342 -0.029 -19.438 -0.036 -19.163 -0.067 7.748 0.144 2.648 0.086 43.255 41.499
-8.000 -19.228 -0.021 -19.346 -0.029 -19.443 -0.036 -19.167 -0.068 7.743 0.142 2.655 0.085 43.257 41.517
-7.900 -19.231 -0.021 -19.350 -0.029 -19.448 -0.036 -19.170 -0.068 7.728 0.137 2.668 0.083 43.257 41.311
-7.800 -19.233 -0.021 -19.354 -0.029 -19.452 -0.037 -19.174 -0.068 7.725 0.156 2.673 0.094 43.258 nan
-7.700 -19.235 -0.021 -19.358 -0.030 -19.456 -0.037 -19.177 -0.068 7.706 0.138 2.688 0.085 43.259 41.197
-7.600 -19.237 -0.021 -19.361 -0.030 -19.461 -0.037 -19.180 -0.068 7.694 0.137 2.699 0.084 43.260 41.204
-7.500 -19.238 -0.021 -19.365 -0.030 -19.465 -0.037 -19.183 -0.068 7.689 0.137 2.705 0.086 43.261 41.489
-7.400 -19.240 -0.021 -19.368 -0.030 -19.469 -0.037 -19.186 -0.069 7.672 0.138 2.719 0.087 43.261 41.308
-7.300 -19.241 -0.021 -19.371 -0.030 -19.473 -0.037 -19.189 -0.069 7.655 0.134 2.733 0.086 43.262 41.024
-7.200 -19.243 -0.021 -19.374 -0.030 -19.477 -0.037 -19.192 -0.069 7.648 0.135 2.740 0.086 43.263 nan
-7.100 -19.244 -0.021 -19.377 -0.030 -19.480 -0.037 -19.195 -0.069 7.637 0.135 2.750 0.086 43.263 41.320
-7.000 -19.245 -0.021 -19.380 -0.031 -19.484 -0.037 -19.198 -0.069 7.618 0.136 2.764 0.088 43.263 nan
-6.900 -19.246 -0.021 -19.382 -0.031 -19.487 -0.037 -19.201 -0.070 7.611 0.143 2.771 0.092 43.264 nan
-6.800 -19.247 -0.021 -19.385 -0.031 -19.490 -0.037 -19.203 -0.070 7.590 0.136 2.787 0.089 43.264 41.229
-6.700 -19.247 -0.022 -19.387 -0.031 -19.494 -0.037 -19.206 -0.070 7.583 0.137 2.794 0.091 43.265 40.914
-6.600 -19.248 -0.022 -19.390 -0.031 -19.497 -0.037 -19.208 -0.070 7.563 0.139 2.809 0.092 43.265 41.262
-6.500 -19.248 -0.022 -19.392 -0.032 -19.499 -0.037 -19.211 -0.070 7.560 0.147 2.812 0.097 43.265 nan
-6.400 -19.248 -0.023 -19.394 -0.032 -19.502 -0.037 -19.213 -0.071 7.548 0.139 2.823 0.092 43.265 41.213
-6.300 -19.248 -0.023 -19.395 -0.032 -19.505 -0.037 -19.215 -0.071 7.520 0.138 2.842 0.093 43.265 nan
-6.200 -19.248 -0.023 -19.397 -0.032 -19.507 -0.037 -19.217 -0.071 7.523 0.153 2.840 0.103 43.265 nan
-6.100 -19.248 -0.024 -19.399 -0.032 -19.510 -0.037 -19.219 -0.071 7.497 0.140 2.860 0.094 43.265 41.300
-6.000 -19.247 -0.024 -19.400 -0.033 -19.512 -0.037 -19.221 -0.072 7.481 0.141 2.872 0.096 43.265 41.436
-5.900 -19.247 -0.024 -19.401 -0.033 -19.514 -0.037 -19.223 -0.072 7.469 0.141 2.881 0.096 43.265 41.391
-5.800 -19.246 -0.025 -19.402 -0.033 -19.516 -0.037 -19.224 -0.072 7.444 0.139 2.899 0.097 43.265 nan
-5.700 -19.245 -0.025 -19.403 -0.033 -19.517 -0.037 -19.226 -0.072 7.436 0.140 2.905 0.098 43.264 40.983
-5.600 -19.244 -0.026 -19.404 -0.033 -19.519 -0.037 -19.227 -0.073 7.417 0.144 2.919 0.101 43.264 41.405
-5.500 -19.243 -0.026 -19.405 -0.034 -19.520 -0.037 -19.229 -0.073 7.407 0.141 2.926 0.098 43.264 40.241
-5.400 -19.241 -0.027 -19.405 -0.034 -19.522 -0.037 -19.230 -0.073 7.387 0.144 2.941 0.101 43.264 41.297
-5.300 -19.240 -0.027 -19.406 -0.034 -19.523 -0.037 -19.231 -0.073 7.366 0.140 2.954 0.099 43.262 40.338
-5.200 -19.238 -0.027 -19.406 -0.034 -19.524 -0.037 -19.232 -0.074 7.346 0.144 2.969 0.103 43.262 41.219
-5.100 -19.236 -0.028 -19.406 -0.034 -19.525 -0.036 -19.233 -0.074 7.338 0.144 2.973 0.103 43.262 41.326
-5.000 -19.234 -0.028 -19.406 -0.034 -19.526 -0.036 -19.234 -0.074 7.313 0.144 2.992 0.104 43.261 nan
-4.900 -19.232 -0.029 -19.406 -0.035 -19.527 -0.036 -19.234 -0.074 7.307 0.145 2.996 0.106 43.261 41.548
-4.800 -19.230 -0.029 -19.406 -0.035 -19.527 -0.036 -19.235 -0.075 7.286 0.145 3.010 0.107 43.260 41.397
-4.700 -19.228 -0.030 -19.405 -0.035 -19.528 -0.036 -19.236 -0.075 7.262 0.142 3.025 0.105 43.259 41.442
-4.600 -19.225 -0.030 -19.405 -0.035 -19.528 -0.036 -19.236 -0.075 7.246 0.140 3.036 0.104 43.258 nan
-4.500 -19.223 -0.031 -19.404 -0.035 -19.528 -0.035 -19.236 -0.075 7.234 0.142 3.045 0.106 43.257 41.251
-4.400 -19.220 -0.031 -19.404 -0.035 -19.529 -0.035 -19.237 -0.076 7.223 0.145 3.051 0.109 43.257 41.406
-4.300 -19.217 -0.031 -19.403 -0.035 -19.529 -0.035 -19.237 -0.076 7.197 0.143 3.069 0.107 43.256 41.248
-4.200 -19.214 -0.032 -19.402 -0.035 -19.529 -0.035 -19.237 -0.076 7.184 0.144 3.078 0.109 43.255 nan
-4.100 -19.211 -0.032 -19.401 -0.036 -19.529 -0.035 -19.237 -0.076 7.174 0.161 3.084 0.122 43.254 nan
-4.000 -19.208 -0.033 -19.400 -0.036 -19.529 -0.034 -19.237 -0.077 7.136 0.143 3.111 0.110 43.253 41.317
-3.900 -19.205 -0.033 -19.399 -0.036 -19.529 -0.034 -19.237 -0.077 7.123 0.145 3.120 0.113 43.252 40.826
-3.800 -19.202 -0.033 -19.398 -0.036 -19.528 -0.034 -19.237 -0.077 7.119 0.160 3.122 0.123 43.251 nan
-3.700 -19.198 -0.034 -19.397 -0.036 -19.528 -0.034 -19.237 -0.077 7.099 0.141 3.134 0.111 43.250 nan
-3.600 -19.195 -0.034 -19.395 -0.036 -19.528 -0.034 -19.237 -0.077 7.074 0.146 3.151 0.114 43.249 41.064
-3.500 -19.191 -0.035 -19.394 -0.036 -19.527 -0.033 -19.237 -0.078 7.067 0.164 3.154 0.129 43.248 nan
-3.400 -19.188 -0.035 -19.392 -0.036 -19.527 -0.033 -19.237 -0.078 7.030 0.146 3.183 0.117 43.246 nan
-3.300 -19.184 -0.035 -19.391 -0.036 -19.526 -0.033 -19.236 -0.078 7.016 0.146 3.193 0.118 43.246 41.292
-3.200 -19.180 -0.036 -19.389 -0.036 -19.526 -0.033 -19.236 -0.078 6.998 0.145 3.205 0.118 43.244 41.244
-3.100 -19.177 -0.036 -19.388 -0.036 -19.525 -0.032 -19.236 -0.078 6.984 0.141 3.214 0.114 43.243 40.969
-3.000 -19.173 -0.036 -19.386 -0.036 -19.525 -0.032 -19.235 -0.079 6.969 0.145 3.223 0.118 43.242 41.504
-2.900 -19.169 -0.037 -19.385 -0.036 -19.524 -0.032 -19.235 -0.079 6.956 0.142 3.232 0.116 43.241 41.179
-2.800 -19.165 -0.037 -19.383 -0.036 -19.523 -0.032 -19.234 -0.079 6.929 0.144 3.250 0.119 43.239 41.474
-2.700 -19.161 -0.038 -19.381 -0.036 -19.523 -0.032 -19.234 -0.079 6.915 0.143 3.260 0.120 43.239 41.369
-2.600 -19.157 -0.038 -19.379 -0.036 -19.522 -0.031 -19.233 -0.079 6.891 0.139 3.277 0.117 43.237 nan
-2.500 -19.153 -0.038 -19.377 -0.036 -19.521 -0.031 -19.233 -0.080 6.877 0.142 3.287 0.120 43.236 41.433
-2.400 -19.148 -0.039 -19.376 -0.036 -19.520 -0.031 -19.232 -0.080 6.866 0.146 3.294 0.122 43.235 41.462
-2.300 -19.144 -0.039 -19.374 -0.036 -19.519 -0.031 -19.231 -0.080 6.846 0.143 3.308 0.123 43.234 41.417
-2.200 -19.140 -0.039 -19.372 -0.037 -19.518 -0.031 -19.231 -0.080 6.829 0.143 3.319 0.124 43.232 41.309
-2.100 -19.136 -0.040 -19.370 -0.037 -19.517 -0.031 -19.230 -0.080 6.831 0.160 3.315 0.137 43.232 nan
-2.000 -19.131 -0.040 -19.368 -0.037 -19.516 -0.031 -19.229 -0.080 6.804 0.143 3.335 0.124 43.230 41.255
-1.900 -19.127 -0.041 -19.365 -0.037 -19.515 -0.031 -19.228 -0.081 6.784 0.144 3.351 0.126 43.229 41.342
-1.800 -19.122 -0.041 -19.363 -0.037 -19.514 -0.030 -19.227 -0.081 6.768 0.141 3.360 0.124 43.227 41.493
-1.700 -19.117 -0.041 -19.361 -0.037 -19.513 -0.030 -19.226 -0.081 6.755 0.142 3.368 0.126 43.226 41.394
-1.600 -19.113 -0.042 -19.359 -0.037 -19.512 -0.030 -19.226 -0.081 6.735 0.141 3.383 0.127 43.225 nan
-1.500 -19.108 -0.042 -19.357 -0.037 -19.510 -0.030 -19.225 -0.081 6.725 0.143 3.388 0.128 43.224 nan
-1.400 -19.103 -0.043 -19.354 -0.037 -19.509 -0.030 -19.223 -0.081 6.707 0.141 3.399 0.127 43.222 40.791
-1.300 -19.099 -0.043 -19.352 -0.037 -19.508 -0.030 -19.222 -0.081 6.701 0.160 3.403 0.143 43.221 nan
-1.200 -19.094 -0.044 -19.350 -0.038 -19.506 -0.030 -19.221 -0.082 6.679 0.141 3.418 0.128 43.219 41.344
-1.100 -19.089 -0.044 -19.347 -0.038 -19.505 -0.030 -19.220 -0.082 6.659 0.140 3.431 0.129 43.218 nan
-1.000 -19.084 -0.045 -19.345 -0.038 -19.503 -0.030 -19.219 -0.082 6.649 0.144 3.439 0.132 43.217 41.384
-0.900 -19.079 -0.045 -19.343 -0.038 -19.501 -0.030 -19.218 -0.082 6.635 0.145 3.445 0.134 43.215 41.464
-0.800 -19.074 -0.046 -19.340 -0.039 -19.500 -0.030 -19.216 -0.082 6.629 0.144 3.447 0.133 43.213 nan
-0.700 -19.069 -0.046 -19.338 -0.039 -19.498 -0.030 -19.215 -0.082 6.605 0.143 3.467 0.133 43.212 41.469
-0.600 -19.064 -0.047 -19.335 -0.039 -19.496 -0.030 -19.213 -0.082 6.595 0.146 3.472 0.138 43.211 41.411
-0.500 -19.058 -0.047 -19.332 -0.039 -19.495 -0.030 -19.212 -0.083 6.592 0.143 3.469 0.135 43.209 nan
-0.400 -19.053 -0.048 -19.330 -0.040 -19.493 -0.031 -19.211 -0.083 6.581 0.150 3.475 0.139 43.208 41.334
-0.300 -19.048 -0.049 -19.327 -0.040 -19.491 -0.031 -19.209 -0.083 6.564 0.146 3.487 0.139 43.206 41.138
-0.200 -19.042 -0.049 -19.325 -0.041 -19.489 -0.031 -19.207 -0.083 6.557 0.146 3.489 0.140 43.205 nan
-0.100 -19.037 -0.050 -19.322 -0.041 -19.487 -0.031 -19.206 -0.083 6.552 0.148 3.488 0.140 43.203 nan
0.000 -19.032 -0.051 -19.319 -0.041 -19.485 -0.031 -19.204 -0.083 6.535 0.147 3.499 0.140 43.202 nan
0.100 -19.026 -0.051 -19.316 -0.042 -19.483 -0.032 -19.202 -0.084 6.523 0.150 3.505 0.144 43.200 40.196
0.200 -19.020 -0.052 -19.313 -0.042 -19.480 -0.032 -19.201 -0.084 6.522 0.154 3.501 0.148 43.199 41.514
0.300 -19.015 -0.053 -19.311 -0.043 -19.478 -0.032 -19.199 -0.084 6.506 0.153 3.511 0.147 43.197 40.958
0.400 -19.009 -0.053 -19.308 -0.043 -19.476 -0.033 -19.197 -0.084 6.507 0.154 3.505 0.150 43.196 41.189
0.500 -19.003 -0.054 -19.305 -0.044 -19.474 -0.033 -19.195 -0.084 6.502 0.155 3.503 0.148 43.194 41.300
0.600 -18.998 -0.055 -19.302 -0.044 -19.471 -0.033 -19.193 -0.084 6.492 0.159 3.508 0.154 43.193 41.465
0.700 -18.992 -0.055 -19.299 -0.044 -19.469 -0.034 -19.191 -0.085 6.485 0.161 3.508 0.155 43.191 40.975
0.800 -18.986 -0.056 -19.296 -0.045 -19.466 -0.034 -19.189 -0.085 6.478 0.159 3.512 0.155 43.190 41.322
0.900 -18.980 -0.057 -19.292 -0.045 -19.463 -0.035 -19.187 -0.085 6.470 0.161 3.512 0.157 43.188 41.539
1.000 -18.974 -0.058 -19.289 -0.046 -19.461 -0.035 -19.184 -0.085 6.460 0.160 3.515 0.157 43.186 41.268
1.100 -18.968 -0.058 -19.286 -0.046 -19.458 -0.036 -19.182 -0.085 6.452 0.164 3.515 0.161 43.183 41.315
1.200 -18.962 -0.059 -19.283 -0.047 -19.455 -0.036 -19.180 -0.086 6.449 0.164 3.511 0.161 43.182 nan
1.300 -18.956 -0.060 -19.279 -0.047 -19.452 -0.037 -19.178 -0.086 6.441 0.165 3.513 0.164 43.180 41.475
1.400 -18.949 -0.061 -19.276 -0.048 -19.449 -0.037 -19.175 -0.086 6.441 0.165 3.505 0.162 43.178 nan
1.500 -18.943 -0.061 -19.273 -0.048 -19.446 -0.038 -19.173 -0.086 6.431 0.167 3.510 0.163 43.177 nan
1.600 -18.937 -0.062 -19.269 -0.049 -19.443 -0.038 -19.170 -0.087 6.423 0.173 3.512 0.170 43.175 41.523
1.700 -18.930 -0.063 -19.265 -0.049 -19.440 -0.039 -19.168 -0.087 6.421 0.169 3.504 0.169 43.172 nan
1.800 -18.924 -0.064 -19.262 -0.050 -19.437 -0.039 -19.165 -0.087 6.429 0.195 3.490 0.190 43.171 nan
1.900 -18.917 -0.064 -19.258 -0.050 -19.434 -0.040 -19.162 -0.087 6.414 0.195 3.500 0.193 43.169 nan
2.000 -18.911 -0.065 -19.255 -0.050 -19.431 -0.040 -19.160 -0.088 6.399 0.178 3.507 0.177 43.167 41.444
2.100 -18.904 -0.066 -19.251 -0.051 -19.427 -0.041 -19.157 -0.088 6.379 0.175 3.518 0.174 43.164 nan
2.200 -18.898 -0.067 -19.247 -0.051 -19.424 -0.041 -19.154 -0.088 6.374 0.178 3.516 0.178 43.162 41.326
2.300 -18.891 -0.068 -19.243 -0.052 -19.420 -0.042 -19.151 -0.088 6.387 0.178 3.495 0.178 43.161 41.303
2.400 -18.884 -0.068 -19.239 -0.052 -19.417 -0.042 -19.148 -0.089 6.375 0.180 3.501 0.180 43.159 40.532
2.500 -18.877 -0.069 -19.235 -0.053 -19.413 -0.043 -19.145 -0.089 6.362 0.185 3.508 0.184 43.157 41.489
2.600 -18.871 -0.070 -19.231 -0.053 -19.410 -0.043 -19.142 -0.089 6.354 0.182 3.506 0.183 43.155 41.046
2.700 -18.864 -0.071 -19.227 -0.053 -19.406 -0.044 -19.139 -0.089 6.350 0.187 3.503 0.188 43.153 41.476
2.800 -18.857 -0.071 -19.223 -0.054 -19.402 -0.044 -19.136 -0.090 6.339 0.185 3.505 0.186 43.150 41.151
2.900 -18.850 -0.072 -19.219 -0.054 -19.399 -0.044 -19.133 -0.090 6.343 0.190 3.494 0.191 43.149 41.559
3.000 -18.843 -0.073 -19.215 -0.054 -19.395 -0.045 -19.130 -0.090 6.333 0.191 3.499 0.192 43.147 41.544
3.100 -18.836 -0.074 -19.211 -0.055 -19.391 -0.045 -19.127 -0.090 6.324 0.189 3.498 0.191 43.144 41.417
3.200 -18.829 -0.074 -19.207 -0.055 -19.387 -0.046 -19.124 -0.091 6.318 0.191 3.495 0.193 43.142 41.362
3.300 -18.822 -0.075 -19.203 -0.055 -19.383 -0.046 -19.120 -0.091 6.314 0.196 3.493 0.197 43.140 41.495
3.400 -18.815 -0.076 -19.198 -0.056 -19.379 -0.047 -19.117 -0.091 6.307 0.188 3.492 0.190 43.138 nan
3.500 -18.808 -0.077 -19.194 -0.056 -19.375 -0.047 -19.114 -0.091 6.301 0.195 3.492 0.196 43.136 40.729
3.600 -18.800 -0.077 -19.190 -0.056 -19.371 -0.047 -19.110 -0.092 6.282 0.192 3.502 0.195 43.134 41.192
3.700 -18.793 -0.078 -19.185 -0.057 -19.367 -0.048 -19.107 -0.092 6.280 0.191 3.494 0.195 43.131 nan
3.800 -18.786 -0.079 -19.181 -0.057 -19.363 -0.048 -19.103 -0.092 6.281 0.192 3.487 0.197 43.130 nan
3.900 -18.779 -0.079 -19.176 -0.057 -19.359 -0.049 -19.100 -0.092 6.265 0.198 3.496 0.203 43.128 41.211
4.000 -18.771 -0.080 -19.172 -0.057 -19.355 -0.049 -19.097 -0.093 6.250 0.194 3.503 0.200 43.125 nan
4.100 -18.764 -0.081 -19.167 -0.058 -19.351 -0.049 -19.093 -0.093 6.259 0.200 3.484 0.203 43.123 41.129
4.200 -18.757 -0.082 -19.163 -0.058 -19.346 -0.050 -19.089 -0.093 6.238 0.200 3.503 0.205 43.122 41.498
4.300 -18.749 -0.082 -19.158 -0.058 -19.342 -0.050 -19.086 -0.093 6.232 0.196 3.497 0.203 43.119 nan
4.400 -18.742 -0.083 -19.153 -0.058 -19.338 -0.050 -19.082 -0.094 6.234 0.208 3.489 0.212 43.117 41.566
4.500 -18.735 -0.084 -19.148 -0.059 -19.333 -0.050 -19.079 -0.094 6.234 0.220 3.479 0.225 43.115 nan
4.600 -18.727 -0.084 -19.144 -0.059 -19.329 -0.051 -19.075 -0.094 6.206 0.200 3.498 0.210 43.112 41.169
4.700 -18.720 -0.085 -19.139 -0.059 -19.325 -0.051 -19.071 -0.094 6.205 0.199 3.492 0.208 43.110 41.571
4.800 -18.712 -0.086 -19.134 -0.059 -19.320 -0.051 -19.067 -0.095 6.199 0.223 3.487 0.231 43.107 nan
4.900 -18.704 -0.086 -19.129 -0.059 -19.316 -0.051 -19.064 -0.095 6.183 0.203 3.499 0.211 43.105 41.245
5.000 -18.697 -0.087 -19.124 -0.059 -19.311 -0.052 -19.060 -0.095 6.182 0.200 3.489 0.206 43.103 nan
5.100 -18.689 -0.088 -19.119 -0.059 -19.307 -0.052 -19.056 -0.095 6.172 0.198 3.494 0.208 43.101 nan
5.200 -18.682 -0.088 -19.114 -0.060 -19.302 -0.052 -19.052 -0.095 6.166 0.204 3.494 0.214 43.099 41.322
5.300 -18.674 -0.089 -19.109 -0.060 -19.297 -0.052 -19.048 -0.096 6.165 0.207 3.487 0.216 43.097 41.385
5.400 -18.666 -0.090 -19.104 -0.060 -19.293 -0.052 -19.044 -0.096 6.148 0.199 3.492 0.209 43.094 40.943
5.500 -18.659 -0.090 -19.099 -0.060 -19.288 -0.052 -19.040 -0.096 6.130 0.207 3.505 0.220 43.092 nan
5.600 -18.651 -0.091 -19.094 -0.060 -19.283 -0.053 -19.036 -0.096 6.133 0.203 3.490 0.216 43.089 41.335
5.700 -18.643 -0.092 -19.088 -0.060 -19.278 -0.053 -19.032 -0.096 6.118 0.204 3.499 0.218 43.087 41.176
5.800 -18.635 -0.092 -19.083 -0.060 -19.274 -0.053 -19.028 -0.097 6.117 0.205 3.493 0.219 43.085 41.536
5.900 -18.627 -0.093 -19.078 -0.060 -19.269 -0.053 -19.024 -0.097 6.110 0.209 3.492 0.220 43.083 41.360
6.000 -18.619 -0.094 -19.072 -0.060 -19.264 -0.053 -19.020 -0.097 6.094 0.204 3.501 0.217 43.081 nan
6.100 -18.612 -0.094 -19.067 -0.060 -19.259 -0.053 -19.016 -0.097 6.081 0.201 3.504 0.217 43.078 nan
6.200 -18.604 -0.095 -19.061 -0.060 -19.254 -0.053 -19.012 -0.097 6.066 0.206 3.512 0.223 43.075 nan
6.300 -18.596 -0.095 -19.056 -0.060 -19.249 -0.053 -19.007 -0.097 6.082 0.206 3.488 0.222 43.074 nan
6.400 -18.588 -0.096 -19.050 -0.060 -19.244 -0.053 -19.003 -0.097 6.066 0.207 3.494 0.221 43.071 41.194
6.500 -18.580 -0.097 -19.044 -0.060 -19.239 -0.053 -18.999 -0.098 6.052 0.209 3.499 0.226 43.068 41.469
6.600 -18.572 -0.097 -19.039 -0.060 -19.234 -0.053 -18.995 -0.098 6.050 0.206 3.494 0.223 43.067 41.200
6.700 -18.564 -0.098 -19.033 -0.060 -19.229 -0.053 -18.990 -0.098 6.037 0.205 3.498 0.221 43.064 41.324
6.800 -18.556 -0.098 -19.027 -0.060 -19.223 -0.053 -18.986 -0.098 6.032 0.207 3.495 0.225 43.062 nan
6.900 -18.548 -0.099 -19.021 -0.059 -19.218 -0.053 -18.982 -0.098 6.026 0.202 3.493 0.220 43.059 nan
7.000 -18.540 -0.100 -19.015 -0.059 -19.213 -0.053 -18.977 -0.098 6.012 0.206 3.499 0.226 43.057 41.390
7.100 -18.532 -0.100 -19.009 -0.059 -19.208 -0.053 -18.973 -0.098 5.996 0.205 3.510 0.225 43.055 41.354
7.200 -18.524 -0.101 -19.004 -0.059 -19.203 -0.053 -18.969 -0.098 5.990 0.209 3.508 0.228 43.052 nan
7.300 -18.516 -0.101 -18.998 -0.059 -19.198 -0.053 -18.964 -0.098 5.981 0.203 3.508 0.225 43.050 41.061
7.400 -18.508 -0.102 -18.992 -0.059 -19.192 -0.053 -18.960 -0.098 5.981 0.205 3.500 0.228 43.048 41.303
7.500 -18.500 -0.102 -18.986 -0.059 -19.187 -0.052 -18.956 -0.099 5.971 0.207 3.503 0.228 43.046 41.232
7.600 -18.492 -0.103 -18.980 -0.059 -19.182 -0.052 -18.951 -0.099 5.953 0.206 3.514 0.228 43.043 41.377
7.700 -18.484 -0.104 -18.974 -0.058 -19.177 -0.052 -18.947 -0.099 5.955 0.205 3.504 0.230 43.041 nan
7.800 -18.476 -0.104 -18.968 -0.058 -19.172 -0.052 -18.943 -0.099 5.944 0.205 3.504 0.229 43.038 nan
7.900 -18.468 -0.105 -18.962 -0.058 -19.167 -0.052 -18.939 -0.099 5.934 0.206 3.506 0.229 43.036 nan
8.000 -18.460 -0.105 -18.956 -0.058 -19.162 -0.052 -18.934 -0.099 5.925 0.206 3.508 0.230 43.034 41.249
8.100 -18.452 -0.106 -18.950 -0.058 -19.156 -0.052 -18.930 -0.099 5.924 0.206 3.501 0.230 43.032 nan
8.200 -18.445 -0.106 -18.944 -0.057 -19.151 -0.051 -18.926 -0.099 5.900 0.207 3.520 0.231 43.029 41.283
8.300 -18.437 -0.107 -18.938 -0.057 -19.146 -0.051 -18.922 -0.099 5.906 0.205 3.509 0.232 43.028 40.772
8.400 -18.429 -0.108 -18.932 -0.057 -19.141 -0.051 -18.918 -0.099 5.903 0.205 3.502 0.231 43.026 nan
8.500 -18.422 -0.108 -18.926 -0.057 -19.136 -0.051 -18.914 -0.099 5.883 0.202 3.515 0.228 43.023 nan
8.600 -18.414 -0.109 -18.920 -0.057 -19.131 -0.051 -18.910 -0.099 5.876 0.203 3.515 0.229 43.021 nan
8.700 -18.406 -0.109 -18.914 -0.056 -19.126 -0.051 -18.906 -0.099 5.866 0.203 3.517 0.231 43.019 nan
8.800 -18.399 -0.110 -18.908 -0.056 -19.121 -0.050 -18.902 -0.099 5.862 0.205 3.512 0.234 43.016 41.534
8.900 -18.391 -0.110 -18.902 -0.056 -19.117 -0.050 -18.898 -0.099 5.859 0.197 3.509 0.222 43.015 nan
9.000 -18.384 -0.111 -18.896 -0.056 -19.112 -0.050 -18.894 -0.099 5.843 0.203 3.517 0.233 43.012 nan
9.100 -18.376 -0.111 -18.890 -0.055 -19.107 -0.050 -18.890 -0.099 5.847 0.223 3.504 0.254 43.010 nan
9.200 -18.369 -0.112 -18.883 -0.055 -19.102 -0.050 -18.886 -0.099 5.825 0.204 3.522 0.235 43.008 41.240
9.300 -18.361 -0.113 -18.877 -0.055 -19.097 -0.049 -18.882 -0.099 5.821 0.199 3.519 0.230 43.006 nan
9.400 -18.354 -0.113 -18.871 -0.055 -19.092 -0.049 -18.878 -0.099 5.814 0.204 3.520 0.234 43.004 41.163
9.500 -18.346 -0.114 -18.865 -0.054 -19.087 -0.049 -18.874 -0.099 5.806 0.203 3.519 0.235 43.001 40.696
9.600 -18.339 -0.114 -18.859 -0.054 -19.082 -0.049 -18.870 -0.099 5.796 0.201 3.520 0.232 42.998 41.257
9.700 -18.332 -0.115 -18.853 -0.054 -19.077 -0.049 -18.866 -0.099 5.803 0.224 3.505 0.255 42.997 nan
9.800 -18.324 -0.115 -18.847 -0.054 -19.072 -0.048 -18.862 -0.099 5.801 0.224 3.497 0.255 42.994 nan
9.900 -18.317 -0.116 -18.840 -0.053 -19.067 -0.048 -18.859 -0.099 5.767 0.196 3.529 0.231 42.992 nan
10.000 -18.310 -0.117 -18.834 -0.053 -19.062 -0.048 -18.855 -0.098 5.778 0.202 3.510 0.237 42.991 40.657
10.100 -18.302 -0.117 -18.828 -0.053 -19.058 -0.048 -18.851 -0.098 5.748 0.197 3.535 0.233 42.988 41.240
10.200 -18.295 -0.118 -18.821 -0.053 -19.053 -0.048 -18.847 -0.098 5.736 0.198 3.543 0.236 42.986 nan
10.300 -18.288 -0.118 -18.815 -0.052 -19.047 -0.047 -18.843 -0.098 5.737 0.200 3.532 0.235 42.984 nan
10.400 -18.280 -0.119 -18.809 -0.052 -19.042 -0.047 -18.839 -0.098 5.733 0.196 3.527 0.234 42.981 nan
10.500 -18.273 -0.120 -18.802 -0.052 -19.037 -0.047 -18.835 -0.098 5.726 0.195 3.527 0.232 42.979 nan
10.600 -18.265 -0.120 -18.796 -0.052 -19.032 -0.047 -18.831 -0.098 5.706 0.195 3.543 0.234 42.977 nan
10.700 -18.258 -0.121 -18.789 -0.051 -19.027 -0.047 -18.827 -0.098 5.726 0.222 3.510 0.262 42.975 nan
10.800 -18.251 -0.122 -18.783 -0.051 -19.022 -0.046 -18.823 -0.098 5.688 0.198 3.544 0.238 42.972 40.822
10.900 -18.243 -0.122 -18.776 -0.051 -19.017 -0.046 -18.819 -0.098 5.684 0.195 3.540 0.234 42.970 nan
11.000 -18.236 -0.123 -18.769 -0.051 -19.011 -0.046 -18.815 -0.098 5.677 0.194 3.540 0.233 42.967 nan
11.100 -18.229 -0.124 -18.762 -0.050 -19.006 -0.046 -18.811 -0.098 5.668 0.195 3.543 0.239 42.965 41.121
11.200 -18.221 -0.124 -18.756 -0.050 -19.001 -0.046 -18.807 -0.098 5.661 0.193 3.542 0.235 42.963 40.953
11.300 -18.214 -0.125 -18.749 -0.050 -18.995 -0.045 -18.803 -0.098 5.660 0.194 3.535 0.234 42.961 40.718
11.400 -18.206 -0.126 -18.742 -0.050 -18.990 -0.045 -18.799 -0.097 5.658 0.209 3.526 0.251 42.958 nan
11.500 -18.199 -0.126 -18.735 -0.050 -18.984 -0.045 -18.795 -0.097 5.629 0.193 3.553 0.237 42.956 41.169
11.600 -18.191 -0.127 -18.728 -0.049 -18.979 -0.045 -18.791 -0.097 5.628 0.193 3.545 0.236 42.954 41.215
11.700 -18.184 -0.128 -18.721 -0.049 -18.973 -0.045 -18.787 -0.097 5.627 0.194 3.535 0.239 42.951 41.352
11.800 -18.177 -0.128 -18.714 -0.049 -18.968 -0.045 -18.782 -0.097 5.609 0.192 3.550 0.238 42.949 nan
11.900 -18.169 -0.129 -18.707 -0.049 -18.962 -0.044 -18.778 -0.097 5.609 0.193 3.540 0.238 42.946 41.352
12.000 -18.162 -0.130 -18.700 -0.049 -18.957 -0.044 -18.774 -0.097 5.601 0.194 3.539 0.241 42.944 nan
12.100 -18.155 -0.130 -18.693 -0.048 -18.951 -0.044 -18.770 -0.097 5.603 0.191 3.526 0.236 42.941 nan
12.200 -18.147 -0.131 -18.686 -0.048 -18.945 -0.044 -18.766 -0.097 5.580 0.196 3.545 0.244 42.939 41.225
12.300 -18.140 -0.132 -18.679 -0.048 -18.940 -0.044 -18.762 -0.097 5.584 0.193 3.532 0.240 42.937 nan
12.400 -18.133 -0.133 -18.672 -0.048 -18.934 -0.044 -18.758 -0.097 5.566 0.189 3.543 0.236 42.934 40.971
12.500 -18.125 -0.133 -18.665 -0.048 -18.928 -0.044 -18.754 -0.097 5.559 0.190 3.543 0.241 42.931 nan
12.600 -18.118 -0.134 -18.658 -0.047 -18.923 -0.044 -18.750 -0.097 5.551 0.192 3.542 0.240 42.929 nan
12.700 -18.111 -0.135 -18.651 -0.047 -18.917 -0.044 -18.746 -0.097 5.542 0.190 3.545 0.238 42.927 nan
12.800 -18.104 -0.136 -18.644 -0.047 -18.911 -0.044 -18.742 -0.097 5.528 0.191 3.551 0.240 42.924 nan
12.900 -18.097 -0.136 -18.637 -0.047 -18.906 -0.043 -18.738 -0.097 5.528 0.193 3.542 0.245 42.922 40.869
13.000 -18.089 -0.137 -18.630 -0.047 -18.900 -0.043 -18.734 -0.096 5.517 0.187 3.546 0.236 42.919 nan
13.100 -18.082 -0.138 -18.623 -0.047 -18.894 -0.043 -18.730 -0.096 5.516 0.193 3.540 0.246 42.917 41.208
13.200 -18.075 -0.139 -18.616 -0.046 -18.889 -0.043 -18.726 -0.096 5.506 0.189 3.540 0.243 42.914 41.179
13.300 -18.068 -0.139 -18.609 -0.046 -18.883 -0.043 -18.722 -0.096 5.498 0.189 3.541 0.239 42.912 nan
13.400 -18.061 -0.140 -18.602 -0.046 -18.877 -0.043 -18.719 -0.096 5.488 0.192 3.546 0.245 42.910 40.687
13.500 -18.054 -0.141 -18.595 -0.046 -18.872 -0.043 -18.715 -0.096 5.474 0.191 3.553 0.247 42.907 nan
13.600 -18.047 -0.142 -18.588 -0.046 -18.866 -0.043 -18.711 -0.096 5.467 0.189 3.552 0.245 42.905 40.807
13.700 -18.040 -0.143 -18.582 -0.046 -18.861 -0.043 -18.707 -0.096 5.459 0.190 3.554 0.247 42.903 nan
13.800 -18.033 -0.143 -18.575 -0.045 -18.855 -0.043 -18.704 -0.096 5.453 0.189 3.553 0.246 42.900 nan
13.900 -18.027 -0.144 -18.568 -0.045 -18.850 -0.043 -18.700 -0.096 5.448 0.194 3.549 0.251 42.898 41.280
14.000 -18.020 -0.145 -18.561 -0.045 -18.845 -0.043 -18.697 -0.096 5.439 0.191 3.553 0.251 42.896 41.316
14.100 -18.013 -0.146 -18.555 -0.045 -18.839 -0.043 -18.693 -0.097 5.419 0.184 3.567 0.244 42.893 nan
14.200 -18.006 -0.147 -18.548 -0.045 -18.834 -0.043 -18.690 -0.097 5.413 0.188 3.564 0.248 42.890 41.114
14.300 -18.000 -0.148 -18.542 -0.045 -18.829 -0.043 -18.686 -0.097 5.410 0.189 3.559 0.250 42.888 nan
14.400 -17.993 -0.148 -18.535 -0.045 -18.824 -0.043 -18.683 -0.097 5.395 0.188 3.570 0.252 42.886 nan
14.500 -17.987 -0.149 -18.529 -0.045 -18.819 -0.043 -18.680 -0.097 5.387 0.189 3.572 0.254 42.884 nan
14.600 -17.980 -0.150 -18.523 -0.045 -18.814 -0.043 -18.677 -0.097 5.378 0.187 3.575 0.253 42.882 40.565
14.700 -17.974 -0.151 -18.516 -0.044 -18.809 -0.043 -18.674 -0.097 5.380 0.185 3.564 0.249 42.880 nan
14.800 -17.968 -0.152 -18.510 -0.044 -18.804 -0.043 -18.671 -0.097 5.372 0.191 3.566 0.257 42.878 41.194
14.900 -17.962 -0.153 -18.504 -0.044 -18.799 -0.043 -18.668 -0.097 5.359 0.187 3.575 0.254 42.876 41.304
15.000 -17.956 -0.154 -18.498 -0.044 -18.794 -0.043 -18.665 -0.097 5.374 0.210 3.549 0.278 42.874 nan
15.100 -17.950 -0.154 -18.492 -0.044 -18.790 -0.043 -18.662 -0.097 5.336 0.185 3.591 0.255 42.872 nan
15.200 -17.944 -0.155 -18.486 -0.044 -18.785 -0.044 -18.659 -0.097 5.335 0.184 3.582 0.251 42.870 nan
15.300 -17.938 -0.156 -18.481 -0.044 -18.781 -0.044 -18.657 -0.097 5.323 0.192 3.593 0.265 42.869 41.256
15.400 -17.932 -0.157 -18.475 -0.044 -18.777 -0.044 -18.654 -0.097 5.323 0.187 3.581 0.256 42.866 nan
15.500 -17.926 -0.158 -18.469 -0.044 -18.773 -0.044 -18.652 -0.097 5.302 0.182 3.600 0.253 42.863 nan
15.600 -17.921 -0.159 -18.464 -0.044 -18.768 -0.044 -18.649 -0.097 5.300 0.185 3.598 0.258 42.862 nan
15.700 -17.915 -0.160 -18.459 -0.044 -18.765 -0.044 -18.647 -0.098 5.299 0.184 3.593 0.257 42.861 40.868
15.800 -17.910 -0.161 -18.453 -0.044 -18.761 -0.044 -18.645 -0.098 5.287 0.191 3.602 0.268 42.859 41.219
15.900 -17.904 -0.161 -18.448 -0.044 -18.757 -0.044 -18.643 -0.098 5.274 0.186 3.611 0.262 42.857 40.667
16.000 -17.899 -0.162 -18.443 -0.044 -18.753 -0.044 -18.640 -0.098 5.258 0.188 3.627 0.268 42.855 41.180
16.100 -17.894 -0.163 -18.438 -0.044 -18.749 -0.044 -18.638 -0.098 5.255 0.185 3.627 0.265 42.854 41.117
16.200 -17.889 -0.164 -18.433 -0.044 -18.746 -0.045 -18.636 -0.098 5.254 0.187 3.618 0.264 42.852 nan
16.300 -17.883 -0.165 -18.427 -0.044 -18.742 -0.045 -18.635 -0.098 5.244 0.186 3.626 0.268 42.850 nan
16.400 -17.878 -0.166 -18.422 -0.044 -18.739 -0.045 -18.633 -0.098 5.234 0.187 3.634 0.271 42.849 nan
16.500 -17.873 -0.167 -18.418 -0.044 -18.736 -0.045 -18.631 -0.098 5.215 0.190 3.656 0.277 42.848 nan
16.600 -17.868 -0.168 -18.413 -0.044 -18.732 -0.045 -18.629 -0.098 5.217 0.193 3.646 0.281 42.846 nan
16.700 -17.863 -0.169 -18.408 -0.044 -18.729 -0.045 -18.627 -0.099 5.210 0.186 3.648 0.271 42.844 nan
16.800 -17.858 -0.170 -18.403 -0.045 -18.726 -0.045 -18.626 -0.099 5.210 0.182 3.640 0.265 42.842 40.971
16.900 -17.853 -0.170 -18.398 -0.045 -18.723 -0.046 -18.624 -0.099 5.191 0.192 3.664 0.283 42.842 nan
17.000 -17.848 -0.171 -18.393 -0.045 -18.719 -0.046 -18.622 -0.099 5.186 0.188 3.666 0.277 42.840 40.806
17.100 -17.844 -0.172 -18.389 -0.045 -18.716 -0.046 -18.621 -0.099 5.174 0.193 3.676 0.287 42.839 41.243
17.200 -17.839 -0.173 -18.384 -0.045 -18.713 -0.046 -18.619 -0.099 5.182 0.192 3.656 0.285 42.837 nan
17.300 -17.834 -0.174 -18.379 -0.046 -18.710 -0.046 -18.618 -0.099 5.151 0.189 3.696 0.285 42.836 41.151
17.400 -17.829 -0.175 -18.374 -0.046 -18.707 -0.046 -18.616 -0.100 5.151 0.187 3.691 0.281 42.835 nan
17.500 -17.824 -0.176 -18.370 -0.046 -18.704 -0.047 -18.614 -0.100 5.141 0.186 3.696 0.281 42.833 nan
17.600 -17.819 -0.177 -18.365 -0.046 -18.701 -0.047 -18.613 -0.100 5.129 0.189 3.712 0.288 42.832 nan
17.700 -17.814 -0.178 -18.360 -0.047 -18.698 -0.047 -18.611 -0.100 5.126 0.188 3.709 0.287 42.831 41.010
17.800 -17.810 -0.179 -18.356 -0.047 -18.696 -0.047 -18.610 -0.100 5.121 0.190 3.711 0.291 42.829 40.993
17.900 -17.805 -0.180 -18.351 -0.047 -18.693 -0.047 -18.608 -0.100 5.118 0.190 3.707 0.291 42.827 nan
18.000 -17.800 -0.181 -18.346 -0.048 -18.690 -0.048 -18.606 -0.100 5.084 0.191 3.754 0.297 42.827 41.049
18.100 -17.795 -0.182 -18.341 -0.048 -18.687 -0.048 -18.605 -0.101 5.088 0.190 3.743 0.299 42.825 nan
18.200 -17.790 -0.183 -18.337 -0.049 -18.684 -0.048 -18.603 -0.101 5.083 0.191 3.745 0.300 42.824 nan
18.300 -17.785 -0.184 -18.332 -0.049 -18.681 -0.048 -18.602 -0.101 5.080 0.189 3.741 0.295 42.822 nan
18.400 -17.780 -0.184 -18.327 -0.049 -18.678 -0.048 -18.600 -0.101 5.073 0.194 3.749 0.307 42.822 41.098
18.500 -17.775 -0.185 -18.322 -0.050 -18.675 -0.049 -18.598 -0.101 5.056 0.194 3.768 0.307 42.820 41.053
18.600 -17.770 -0.186 -18.317 -0.050 -18.672 -0.049 -18.597 -0.102 5.053 0.189 3.762 0.297 42.818 nan
18.700 -17.765 -0.187 -18.313 -0.051 -18.670 -0.049 -18.595 -0.102 5.052 0.197 3.763 0.312 42.818 nan
18.800 -17.760 -0.188 -18.308 -0.051 -18.667 -0.049 -18.593 -0.102 5.027 0.191 3.794 0.308 42.816 nan
18.900 -17.755 -0.189 -18.303 -0.052 -18.664 -0.050 -18.591 -0.102 5.021 0.197 3.799 0.320 42.815 41.242
19.000 -17.750 -0.190 -18.298 -0.052 -18.661 -0.050 -18.590 -0.102 5.024 0.201 3.790 0.324 42.815 41.188
19.100 -17.745 -0.191 -18.293 -0.053 -18.658 -0.050 -18.588 -0.103 5.018 0.199 3.789 0.321 42.812 41.088
19.200 -17.740 -0.192 -18.288 -0.053 -18.655 -0.051 -18.586 -0.103 5.012 0.201 3.792 0.324 42.811 40.962
19.300 -17.734 -0.193 -18.283 -0.054 -18.652 -0.051 -18.584 -0.103 5.001 0.202 3.807 0.328 42.810 41.156
19.400 -17.729 -0.194 -18.278 -0.054 -18.649 -0.051 -18.582 -0.103 4.987 0.199 3.821 0.330 42.809 41.180
19.500 -17.724 -0.195 -18.273 -0.055 -18.646 -0.051 -18.580 -0.103 4.988 0.200 3.814 0.330 42.807 41.254
19.600 -17.719 -0.196 -18.268 -0.056 -18.643 -0.052 -18.578 -0.104 4.982 0.202 3.815 0.332 42.805 40.003
19.700 -17.713 -0.197 -18.263 -0.056 -18.640 -0.052 -18.576 -0.104 4.978 0.202 3.814 0.332 42.804 41.156
19.800 -17.708 -0.198 -18.258 -0.057 -18.637 -0.052 -18.574 -0.104 4.961 0.198 3.837 0.333 42.803 nan
19.900 -17.702 -0.199 -18.252 -0.058 -18.634 -0.052 -18.572 -0.104 4.958 0.196 3.836 0.327 42.802 nan
20.000 -17.697 -0.200 -18.247 -0.058 -18.631 -0.053 -18.570 -0.105 4.943 0.200 3.850 0.338 42.800 41.082
20.100 -17.691 -0.201 -18.242 -0.059 -18.627 -0.053 -18.568 -0.105 4.938 0.196 3.851 0.334 42.798 nan
20.200 -17.686 -0.202 -18.236 -0.060 -18.624 -0.053 -18.566 -0.105 4.953 0.207 3.822 0.346 42.797 nan
20.300 -17.680 -0.203 -18.231 -0.060 -18.621 -0.054 -18.564 -0.105 4.937 0.205 3.840 0.343 42.795 41.143
20.400 -17.674 -0.204 -18.226 -0.061 -18.618 -0.054 -18.561 -0.106 4.920 0.202 3.861 0.342 42.794 40.991
20.500 -17.669 -0.205 -18.220 -0.062 -18.614 -0.054 -18.559 -0.106 4.914 0.204 3.865 0.350 42.793 41.225
20.600 -17.663 -0.206 -18.215 -0.062 -18.611 -0.055 -18.556 -0.106 4.915 0.202 3.857 0.344 42.791 nan
20.700 -17.657 -0.207 -18.209 -0.063 -18.608 -0.055 -18.554 -0.106 4.894 0.205 3.881 0.353 42.789 41.051
20.800 -17.651 -0.208 -18.204 -0.064 -18.604 -0.055 -18.551 -0.107 4.902 0.210 3.864 0.358 42.788 nan
20.900 -17.645 -0.209 -18.198 -0.065 -18.601 -0.056 -18.549 -0.107 4.895 0.205 3.867 0.350 42.787 nan
21.000 -17.640 -0.210 -18.192 -0.065 -18.597 -0.056 -18.546 -0.107 4.882 0.207 3.883 0.358 42.786 41.276
21.100 -17.634 -0.211 -18.187 -0.066 -18.594 -0.056 -18.544 -0.107 4.871 0.206 3.893 0.357 42.784 nan
21.200 -17.628 -0.212 -18.181 -0.067 -18.590 -0.057 -18.541 -0.108 4.880 0.213 3.872 0.369 42.782 40.643
21.300 -17.622 -0.213 -18.175 -0.068 -18.586 -0.057 -18.538 -0.108 4.863 0.210 3.892 0.365 42.781 nan
21.400 -17.615 -0.214 -18.170 -0.069 -18.583 -0.057 -18.535 -0.108 4.863 0.211 3.885 0.367 42.779 nan
21.500 -17.609 -0.215 -18.164 -0.069 -18.579 -0.058 -18.533 -0.109 4.857 0.210 3.888 0.369 42.778 nan
21.600 -17.603 -0.216 -18.158 -0.070 -18.575 -0.058 -18.530 -0.109 4.830 0.213 3.924 0.380 42.776 41.254
21.700 -17.597 -0.217 -18.152 -0.071 -18.572 -0.058 -18.527 -0.109 4.834 0.217 3.914 0.384 42.776 41.409
21.800 -17.591 -0.218 -18.146 -0.072 -18.568 -0.059 -18.524 -0.109 4.847 0.221 3.881 0.386 42.773 nan
21.900 -17.584 -0.219 -18.140 -0.073 -18.564 -0.059 -18.521 -0.110 4.821 0.215 3.920 0.382 42.772 nan
22.000 -17.578 -0.220 -18.134 -0.074 -18.560 -0.059 -18.518 -0.110 4.827 0.220 3.900 0.386 42.770 nan
22.100 -17.572 -0.221 -18.128 -0.075 -18.556 -0.060 -18.515 -0.110 4.812 0.219 3.920 0.392 42.769 nan
22.200 -17.565 -0.223 -18.122 -0.075 -18.552 -0.060 -18.512 -0.111 4.811 0.222 3.916 0.394 42.767 nan
22.300 -17.559 -0.224 -18.116 -0.076 -18.548 -0.061 -18.508 -0.111 4.795 0.218 3.931 0.393 42.765 nan
22.400 -17.552 -0.225 -18.110 -0.077 -18.544 -0.061 -18.505 -0.111 4.810 0.218 3.894 0.391 42.762 nan
22.500 -17.546 -0.226 -18.104 -0.078 -18.540 -0.061 -18.502 -0.112 4.788 0.223 3.928 0.399 42.762 41.215
22.600 -17.539 -0.227 -18.097 -0.079 -18.536 -0.062 -18.499 -0.112 4.782 0.224 3.929 0.403 42.760 nan
22.700 -17.533 -0.228 -18.091 -0.080 -18.532 -0.062 -18.495 -0.112 4.783 0.223 3.921 0.402 42.758 nan
22.800 -17.526 -0.229 -18.085 -0.081 -18.528 -0.063 -18.492 -0.113 4.762 0.224 3.946 0.408 42.756 nan
22.900 -17.520 -0.230 -18.079 -0.082 -18.524 -0.063 -18.489 -0.113 4.765 0.226 3.936 0.407 42.755 nan
23.000 -17.513 -0.231 -18.073 -0.083 -18.520 -0.063 -18.485 -0.113 4.756 0.226 3.939 0.413 42.753 41.356
23.100 -17.507 -0.232 -18.066 -0.084 -18.515 -0.064 -18.482 -0.113 4.755 0.226 3.931 0.409 42.751 nan
23.200 -17.500 -0.233 -18.060 -0.084 -18.511 -0.064 -18.478 -0.114 4.749 0.235 3.935 0.431 42.749 nan
23.300 -17.493 -0.234 -18.054 -0.085 -18.507 -0.065 -18.475 -0.114 4.736 0.232 3.955 0.427 42.749 41.156
23.400 -17.487 -0.235 -18.048 -0.086 -18.503 -0.065 -18.471 -0.115 4.745 0.225 3.926 0.410 42.746 nan
23.500 -17.480 -0.236 -18.041 -0.087 -18.499 -0.066 -18.468 -0.115 4.725 0.229 3.952 0.424 42.744 41.130
23.600 -17.474 -0.237 -18.035 -0.088 -18.494 -0.066 -18.464 -0.115 4.734 0.238 3.929 0.432 42.742 nan
23.700 -17.467 -0.239 -18.029 -0.089 -18.490 -0.067 -18.461 -0.116 4.717 0.237 3.953 0.438 42.741 41.061
23.800 -17.460 -0.240 -18.023 -0.090 -18.486 -0.067 -18.457 -0.116 4.718 0.232 3.940 0.430 42.739 nan
23.900 -17.454 -0.241 -18.017 -0.091 -18.482 -0.068 -18.454 -0.116 4.716 0.230 3.933 0.425 42.736 nan
24.000 -17.447 -0.242 -18.010 -0.092 -18.477 -0.068 -18.450 -0.117 4.700 0.235 3.954 0.436 42.735 nan
24.100 -17.441 -0.243 -18.004 -0.093 -18.473 -0.069 -18.447 -0.117 4.714 0.241 3.923 0.446 42.734 41.382
24.200 -17.434 -0.244 -17.998 -0.094 -18.469 -0.069 -18.443 -0.117 4.700 0.241 3.940 0.444 42.732 nan
24.300 -17.428 -0.245 -17.992 -0.095 -18.465 -0.070 -18.440 -0.118 4.695 0.240 3.937 0.448 42.730 nan
24.400 -17.422 -0.246 -17.986 -0.096 -18.461 -0.070 -18.436 -0.118 4.689 0.244 3.941 0.456 42.728 41.198
24.500 -17.415 -0.247 -17.980 -0.097 -18.457 -0.071 -18.433 -0.119 4.686 0.239 3.937 0.449 42.726 41.235
24.600 -17.409 -0.249 -17.974 -0.098 -18.452 -0.071 -18.430 -0.119 4.692 0.244 3.916 0.450 42.724 41.224
24.700 -17.403 -0.250 -17.968 -0.099 -18.448 -0.072 -18.426 -0.119 4.682 0.240 3.924 0.449 42.722 nan
24.800 -17.397 -0.251 -17.963 -0.101 -18.444 -0.073 -18.423 -0.120 4.667 0.245 3.950 0.463 42.722 41.417
24.900 -17.390 -0.252 -17.957 -0.102 -18.440 -0.073 -18.420 -0.120 4.666 0.245 3.938 0.462 42.719 40.955
25.000 -17.384 -0.253 -17.951 -0.103 -18.436 -0.074 -18.416 -0.121 4.667 0.242 3.932 0.456 42.718 41.253
25.100 -17.378 -0.254 -17.945 -0.104 -18.432 -0.075 -18.413 -0.121 4.652 0.248 3.953 0.468 42.717 40.707
25.200 -17.372 -0.255 -17.940 -0.105 -18.429 -0.075 -18.410 -0.122 4.652 0.252 3.945 0.479 42.715 41.143
25.300 -17.366 -0.256 -17.934 -0.106 -18.425 -0.076 -18.407 -0.122 4.657 0.248 3.929 0.469 42.714 41.321
25.400 -17.361 -0.258 -17.929 -0.107 -18.421 -0.077 -18.404 -0.123 4.642 0.251 3.949 0.478 42.713 nan
25.500 -17.355 -0.259 -17.923 -0.108 -18.417 -0.077 -18.401 -0.123 4.645 0.256 3.932 0.482 42.710 41.275
25.600 -17.349 -0.260 -17.918 -0.109 -18.413 -0.078 -18.398 -0.124 4.638 0.254 3.937 0.487 42.708 41.131
25.700 -17.343 -0.261 -17.913 -0.111 -18.410 -0.079 -18.395 -0.124 4.619 0.252 3.966 0.486 42.708 nan
25.800 -17.338 -0.262 -17.908 -0.112 -18.406 -0.079 -18.392 -0.125 4.627 0.251 3.947 0.483 42.706 nan
25.900 -17.332 -0.263 -17.903 -0.113 -18.403 -0.080 -18.389 -0.125 4.629 0.260 3.931 0.499 42.704 nan
26.000 -17.327 -0.264 -17.898 -0.114 -18.399 -0.081 -18.386 -0.126 4.630 0.257 3.924 0.485 42.703 nan
26.100 -17.322 -0.266 -17.893 -0.115 -18.396 -0.082 -18.383 -0.126 4.628 0.268 3.922 0.502 42.701 nan
26.200 -17.317 -0.267 -17.888 -0.116 -18.392 -0.082 -18.381 -0.127 4.616 0.262 3.934 0.500 42.700 41.142
26.300 -17.311 -0.268 -17.883 -0.118 -18.389 -0.083 -18.378 -0.127 4.612 0.261 3.938 0.505 42.699 nan
26.400 -17.306 -0.269 -17.879 -0.119 -18.386 -0.084 -18.376 -0.128 4.621 0.265 3.911 0.503 42.697 nan
26.500 -17.302 -0.270 -17.874 -0.120 -18.382 -0.085 -18.373 -0.129 4.616 0.270 3.918 0.515 42.696 41.315
26.600 -17.297 -0.271 -17.870 -0.121 -18.379 -0.086 -18.371 -0.129 4.600 0.258 3.934 0.495 42.694 nan
26.700 -17.292 -0.273 -17.865 -0.123 -18.376 -0.087 -18.368 -0.130 4.608 0.265 3.916 0.510 42.693 nan
26.800 -17.287 -0.274 -17.861 -0.124 -18.373 -0.088 -18.366 -0.130 4.602 0.265 3.922 0.514 42.692 41.196
26.900 -17.283 -0.275 -17.857 -0.125 -18.370 -0.088 -18.364 -0.131 4.606 0.271 3.910 0.517 42.691 41.319
27.000 -17.279 -0.276 -17.853 -0.126 -18.367 -0.089 -18.362 -0.132 4.603 0.271 3.912 0.525 42.690 41.367
27.100 -17.274 -0.277 -17.849 -0.128 -18.365 -0.090 -18.360 -0.132 4.592 0.272 3.923 0.525 42.688 41.185
27.200 -17.270 -0.279 -17.845 -0.129 -18.362 -0.091 -18.358 -0.133 4.579 0.276 3.947 0.533 42.689 41.299
27.300 -17.266 -0.280 -17.841 -0.130 -18.359 -0.092 -18.356 -0.134 4.588 0.279 3.920 0.534 42.686 41.297
27.400 -17.262 -0.281 -17.838 -0.132 -18.357 -0.093 -18.355 -0.134 4.597 0.283 3.900 0.545 42.685 41.419
27.500 -17.258 -0.282 -17.834 -0.133 -18.354 -0.094 -18.353 -0.135 4.586 0.280 3.918 0.536 42.685 41.149
27.600 -17.254 -0.283 -17.831 -0.134 -18.352 -0.095 -18.351 -0.136 4.564 0.280 3.951 0.546 42.683 nan
27.700 -17.251 -0.285 -17.827 -0.136 -18.349 -0.096 -18.350 -0.137 4.592 0.282 3.893 0.539 42.681 41.216
27.800 -17.247 -0.286 -17.824 -0.137 -18.347 -0.097 -18.348 -0.138 4.573 0.281 3.927 0.551 42.682 nan
27.900 -17.243 -0.287 -17.821 -0.138 -18.345 -0.098 -18.347 -0.138 4.579 0.284 3.908 0.553 42.680 nan
28.000 -17.240 -0.288 -17.818 -0.140 -18.342 -0.100 -18.345 -0.139 4.570 0.289 3.923 0.564 42.680 nan
28.100 -17.237 -0.289 -17.815 -0.141 -18.340 -0.101 -18.344 -0.140 4.561 0.291 3.933 0.572 42.679 41.387
28.200 -17.233 -0.291 -17.812 -0.142 -18.338 -0.102 -18.342 -0.141 4.561 0.294 3.930 0.579 42.678 41.183
28.300 -17.230 -0.292 -17.809 -0.144 -18.336 -0.103 -18.341 -0.142 4.571 0.291 3.905 0.565 42.676 nan
28.400 -17.227 -0.293 -17.806 -0.145 -18.334 -0.104 -18.340 -0.143 4.567 0.293 3.905 0.569 42.675 nan
28.500 -17.223 -0.294 -17.803 -0.147 -18.331 -0.105 -18.338 -0.143 4.553 0.296 3.931 0.584 42.675 41.168
28.600 -17.220 -0.296 -17.800 -0.148 -18.329 -0.106 -18.337 -0.144 4.564 0.297 3.909 0.580 42.674 nan
28.700 -17.217 -0.297 -17.797 -0.149 -18.327 -0.108 -18.336 -0.145 4.551 0.298 3.928 0.588 42.673 nan
28.800 -17.214 -0.298 -17.794 -0.151 -18.325 -0.109 -18.334 -0.146 4.556 0.310 3.916 0.605 42.673 41.485
28.900 -17.211 -0.299 -17.791 -0.152 -18.323 -0.110 -18.333 -0.147 4.553 0.305 3.911 0.596 42.671 nan
29.000 -17.208 -0.301 -17.789 -0.154 -18.320 -0.111 -18.332 -0.148 4.541 0.308 3.931 0.606 42.671 nan
29.100 -17.205 -0.302 -17.786 -0.155 -18.318 -0.112 -18.330 -0.149 4.542 0.306 3.923 0.602 42.669 nan
29.200 -17.202 -0.303 -17.783 -0.157 -18.316 -0.114 -18.329 -0.150 4.563 0.315 3.883 0.604 42.668 nan
29.300 -17.199 -0.304 -17.780 -0.158 -18.314 -0.115 -18.327 -0.151 4.557 0.316 3.897 0.615 42.669 nan
29.400 -17.196 -0.306 -17.778 -0.160 -18.312 -0.116 -18.326 -0.152 4.553 0.314 3.894 0.614 42.667 40.866
29.500 -17.193 -0.307 -17.775 -0.161 -18.309 -0.118 -18.325 -0.153 4.540 0.322 3.917 0.634 42.667 nan
29.600 -17.190 -0.308 -17.772 -0.163 -18.307 -0.119 -18.323 -0.155 4.553 0.326 3.882 0.634 42.664 41.440
29.700 -17.187 -0.309 -17.769 -0.164 -18.305 -0.120 -18.322 -0.156 4.540 0.322 3.906 0.628 42.665 nan
29.800 -17.184 -0.311 -17.767 -0.166 -18.302 -0.121 -18.320 -0.157 4.541 0.321 3.902 0.635 42.664 nan
29.900 -17.181 -0.312 -17.764 -0.167 -18.300 -0.123 -18.319 -0.158 4.522 0.320 3.927 0.639 42.662 nan
