"Time (MJD)" GAIA/GAIA0.G GAIA/GAIA0.G_err Misc/Atlas.orange Misc/Atlas.orange_err PAN-STARRS/PS1.g PAN-STARRS/PS1.g_err PAN-STARRS/PS1.i PAN-STARRS/PS1.i_err PAN-STARRS/PS1.r PAN-STARRS/PS1.r_err PAN-STARRS/PS1.w PAN-STARRS/PS1.w_err PAN-STARRS/PS1.z PAN-STARRS/PS1.z_err "Temp./1e3 (K)" "Temp. Err." "Radius/1e15 (cm)" "Radius Err." "Log10(Bol. Lum)" "Log10(Bol. Err)"
-50.000 -15.607 -0.102 -16.252 -0.062 -16.307 -0.060 -16.372 -0.058 -16.499 -0.054 -16.570 -0.055 -16.409 -0.115 5.261 0.297 1.358 0.169 42.003 41.529
-49.000 -15.673 -0.096 -16.300 -0.057 -16.352 -0.055 -16.414 -0.053 -16.535 -0.049 -16.597 -0.051 -16.433 -0.109 5.350 0.304 1.335 0.164 42.017 41.541
-48.000 -15.739 -0.090 -16.348 -0.053 -16.398 -0.051 -16.458 -0.049 -16.572 -0.045 -16.625 -0.047 -16.458 -0.103 5.441 0.310 1.313 0.159 42.032 41.554
-47.000 -15.806 -0.085 -16.397 -0.049 -16.446 -0.047 -16.502 -0.045 -16.611 -0.041 -16.655 -0.043 -16.484 -0.098 5.534 0.317 1.293 0.155 42.048 41.569
-46.000 -15.873 -0.080 -16.447 -0.045 -16.494 -0.043 -16.548 -0.041 -16.650 -0.038 -16.686 -0.040 -16.511 -0.093 5.590 0.320 1.293 0.153 42.066 41.584
-45.000 -15.941 -0.075 -16.498 -0.042 -16.542 -0.040 -16.594 -0.038 -16.690 -0.036 -16.719 -0.037 -16.540 -0.088 5.725 0.332 1.256 0.148 42.082 41.601
-44.000 -16.009 -0.071 -16.549 -0.039 -16.592 -0.037 -16.641 -0.036 -16.731 -0.033 -16.752 -0.035 -16.570 -0.084 5.824 0.340 1.240 0.145 42.100 41.619
-43.000 -16.077 -0.067 -16.601 -0.037 -16.642 -0.035 -16.689 -0.033 -16.773 -0.031 -16.786 -0.033 -16.601 -0.080 5.923 0.349 1.225 0.142 42.119 41.639
-42.000 -16.145 -0.064 -16.653 -0.034 -16.692 -0.033 -16.737 -0.031 -16.815 -0.029 -16.821 -0.031 -16.632 -0.076 6.024 0.358 1.211 0.140 42.139 41.659
-41.000 -16.213 -0.061 -16.706 -0.033 -16.743 -0.031 -16.785 -0.030 -16.858 -0.028 -16.857 -0.030 -16.665 -0.073 6.124 0.368 1.199 0.138 42.159 41.681
-40.000 -16.280 -0.058 -16.758 -0.031 -16.794 -0.030 -16.834 -0.028 -16.902 -0.026 -16.894 -0.028 -16.699 -0.070 6.226 0.379 1.188 0.136 42.179 41.703
-39.000 -16.348 -0.055 -16.812 -0.030 -16.845 -0.028 -16.884 -0.027 -16.946 -0.025 -16.931 -0.027 -16.733 -0.068 6.326 0.389 1.179 0.134 42.200 41.726
-38.000 -16.415 -0.053 -16.865 -0.028 -16.897 -0.027 -16.933 -0.026 -16.991 -0.024 -16.969 -0.026 -16.768 -0.065 6.427 0.400 1.171 0.133 42.222 41.750
-37.000 -16.482 -0.050 -16.918 -0.027 -16.949 -0.026 -16.983 -0.025 -17.035 -0.023 -17.007 -0.025 -16.804 -0.063 6.526 0.411 1.164 0.132 42.244 41.774
-36.000 -16.549 -0.048 -16.971 -0.026 -17.000 -0.025 -17.032 -0.024 -17.080 -0.023 -17.046 -0.025 -16.841 -0.061 6.624 0.422 1.159 0.132 42.266 41.799
-35.000 -16.615 -0.046 -17.024 -0.025 -17.052 -0.024 -17.082 -0.023 -17.125 -0.022 -17.085 -0.024 -16.877 -0.060 6.720 0.433 1.155 0.131 42.288 41.824
-34.000 -16.680 -0.044 -17.077 -0.025 -17.103 -0.023 -17.132 -0.022 -17.171 -0.021 -17.125 -0.023 -16.915 -0.058 6.814 0.443 1.153 0.131 42.310 41.848
-33.000 -16.744 -0.042 -17.129 -0.024 -17.154 -0.023 -17.181 -0.021 -17.216 -0.020 -17.165 -0.023 -16.952 -0.057 6.906 0.454 1.152 0.130 42.333 41.873
-32.000 -16.808 -0.040 -17.181 -0.023 -17.205 -0.022 -17.230 -0.021 -17.261 -0.020 -17.204 -0.022 -16.990 -0.055 6.994 0.464 1.153 0.130 42.355 41.897
-31.000 -16.871 -0.038 -17.233 -0.022 -17.255 -0.021 -17.279 -0.020 -17.305 -0.019 -17.244 -0.021 -17.028 -0.054 7.080 0.473 1.154 0.130 42.378 41.921
-30.000 -16.932 -0.037 -17.284 -0.021 -17.305 -0.020 -17.327 -0.019 -17.350 -0.018 -17.284 -0.021 -17.066 -0.053 7.162 0.481 1.157 0.130 42.400 41.944
-29.000 -16.993 -0.035 -17.334 -0.021 -17.354 -0.020 -17.375 -0.018 -17.394 -0.018 -17.324 -0.020 -17.104 -0.052 7.240 0.489 1.161 0.130 42.422 41.968
-28.000 -17.053 -0.033 -17.384 -0.020 -17.403 -0.019 -17.422 -0.018 -17.438 -0.017 -17.363 -0.020 -17.143 -0.051 7.314 0.497 1.167 0.130 42.444 41.990
-27.000 -17.111 -0.032 -17.433 -0.019 -17.451 -0.018 -17.468 -0.017 -17.481 -0.016 -17.403 -0.019 -17.181 -0.050 7.384 0.503 1.174 0.131 42.465 42.012
-26.000 -17.168 -0.030 -17.481 -0.018 -17.498 -0.017 -17.514 -0.016 -17.524 -0.016 -17.442 -0.019 -17.219 -0.050 7.449 0.509 1.182 0.131 42.486 42.033
-25.000 -17.224 -0.029 -17.528 -0.018 -17.544 -0.017 -17.559 -0.016 -17.566 -0.015 -17.480 -0.018 -17.256 -0.049 7.510 0.514 1.191 0.132 42.507 42.053
-24.000 -17.278 -0.027 -17.574 -0.017 -17.589 -0.016 -17.603 -0.015 -17.607 -0.015 -17.518 -0.018 -17.294 -0.048 7.565 0.518 1.201 0.132 42.527 42.073
-23.000 -17.331 -0.026 -17.619 -0.016 -17.634 -0.015 -17.646 -0.014 -17.648 -0.014 -17.556 -0.018 -17.330 -0.048 7.617 0.522 1.212 0.133 42.547 42.092
-22.000 -17.382 -0.025 -17.663 -0.016 -17.677 -0.015 -17.689 -0.014 -17.688 -0.014 -17.593 -0.018 -17.367 -0.047 7.665 0.525 1.223 0.134 42.566 42.110
-21.000 -17.432 -0.024 -17.706 -0.015 -17.719 -0.014 -17.730 -0.014 -17.726 -0.014 -17.629 -0.017 -17.403 -0.047 7.709 0.527 1.235 0.134 42.584 42.128
-20.000 -17.480 -0.023 -17.748 -0.015 -17.760 -0.014 -17.770 -0.013 -17.764 -0.013 -17.664 -0.017 -17.438 -0.046 7.752 0.530 1.247 0.135 42.602 42.145
-19.000 -17.526 -0.022 -17.788 -0.014 -17.799 -0.014 -17.808 -0.013 -17.801 -0.013 -17.699 -0.017 -17.473 -0.046 7.793 0.532 1.259 0.136 42.620 42.161
-18.000 -17.570 -0.021 -17.827 -0.014 -17.838 -0.013 -17.846 -0.013 -17.837 -0.013 -17.733 -0.017 -17.507 -0.046 7.833 0.534 1.271 0.137 42.637 42.177
-17.000 -17.613 -0.021 -17.864 -0.014 -17.875 -0.013 -17.882 -0.013 -17.872 -0.013 -17.766 -0.017 -17.540 -0.045 7.874 0.537 1.282 0.137 42.653 42.193
-16.000 -17.654 -0.021 -17.900 -0.014 -17.910 -0.013 -17.917 -0.012 -17.905 -0.013 -17.798 -0.017 -17.573 -0.045 7.916 0.540 1.292 0.138 42.669 42.209
-15.000 -17.693 -0.020 -17.935 -0.014 -17.944 -0.013 -17.951 -0.012 -17.937 -0.013 -17.829 -0.017 -17.605 -0.045 7.959 0.543 1.301 0.138 42.685 42.224
-14.000 -17.730 -0.020 -17.968 -0.014 -17.977 -0.013 -17.983 -0.013 -17.968 -0.013 -17.858 -0.017 -17.635 -0.045 8.002 0.546 1.310 0.139 42.700 42.239
-13.000 -17.766 -0.021 -18.000 -0.014 -18.008 -0.013 -18.014 -0.013 -17.998 -0.013 -17.887 -0.017 -17.665 -0.045 8.046 0.550 1.318 0.139 42.715 42.253
-12.000 -17.799 -0.021 -18.030 -0.014 -18.038 -0.013 -18.043 -0.013 -18.026 -0.014 -17.915 -0.017 -17.694 -0.045 8.088 0.553 1.325 0.139 42.728 42.267
-11.000 -17.830 -0.021 -18.058 -0.014 -18.066 -0.014 -18.071 -0.013 -18.053 -0.014 -17.941 -0.018 -17.722 -0.045 8.127 0.556 1.332 0.140 42.742 42.279
-10.000 -17.860 -0.022 -18.085 -0.015 -18.093 -0.014 -18.097 -0.013 -18.079 -0.014 -17.967 -0.018 -17.748 -0.045 8.163 0.558 1.339 0.140 42.754 42.291
-9.000 -17.887 -0.022 -18.110 -0.015 -18.118 -0.014 -18.121 -0.013 -18.103 -0.014 -17.991 -0.018 -17.774 -0.045 8.195 0.559 1.347 0.140 42.766 42.301
-8.000 -17.913 -0.022 -18.134 -0.015 -18.141 -0.014 -18.145 -0.013 -18.125 -0.014 -18.013 -0.018 -17.798 -0.045 8.222 0.559 1.355 0.139 42.776 42.309
-7.000 -17.936 -0.023 -18.155 -0.015 -18.162 -0.014 -18.166 -0.014 -18.147 -0.014 -18.035 -0.018 -17.821 -0.046 8.242 0.558 1.363 0.139 42.786 42.316
-6.000 -17.957 -0.023 -18.175 -0.015 -18.182 -0.014 -18.186 -0.014 -18.166 -0.014 -18.055 -0.018 -17.843 -0.046 8.255 0.554 1.372 0.139 42.795 42.321
-5.000 -17.976 -0.023 -18.194 -0.016 -18.201 -0.015 -18.204 -0.014 -18.184 -0.014 -18.073 -0.018 -17.864 -0.047 8.261 0.550 1.383 0.138 42.802 42.325
-4.000 -17.994 -0.024 -18.210 -0.016 -18.217 -0.015 -18.221 -0.014 -18.201 -0.014 -18.091 -0.018 -17.884 -0.047 8.260 0.543 1.394 0.138 42.809 42.326
-3.000 -18.009 -0.024 -18.225 -0.016 -18.232 -0.015 -18.235 -0.014 -18.216 -0.014 -18.107 -0.018 -17.902 -0.048 8.250 0.536 1.406 0.137 42.815 42.326
-2.000 -18.022 -0.024 -18.239 -0.016 -18.245 -0.015 -18.249 -0.014 -18.230 -0.014 -18.121 -0.018 -17.919 -0.049 8.233 0.526 1.419 0.137 42.819 42.324
-1.000 -18.034 -0.024 -18.250 -0.016 -18.257 -0.016 -18.260 -0.015 -18.242 -0.015 -18.134 -0.018 -17.935 -0.050 8.207 0.516 1.433 0.136 42.822 42.321
-0.000 -18.043 -0.024 -18.260 -0.017 -18.267 -0.016 -18.270 -0.015 -18.252 -0.015 -18.146 -0.018 -17.949 -0.052 8.174 0.504 1.449 0.135 42.825 42.315
1.000 -18.050 -0.024 -18.268 -0.017 -18.275 -0.016 -18.279 -0.015 -18.261 -0.015 -18.156 -0.018 -17.962 -0.054 8.133 0.491 1.465 0.135 42.826 42.308
2.000 -18.056 -0.024 -18.274 -0.018 -18.282 -0.017 -18.286 -0.016 -18.269 -0.016 -18.165 -0.019 -17.974 -0.055 8.085 0.477 1.483 0.134 42.826 42.299
3.000 -18.059 -0.024 -18.279 -0.018 -18.287 -0.018 -18.291 -0.017 -18.274 -0.017 -18.173 -0.019 -17.984 -0.057 8.031 0.462 1.501 0.133 42.825 42.289
4.000 -18.061 -0.025 -18.282 -0.019 -18.290 -0.019 -18.294 -0.018 -18.279 -0.017 -18.179 -0.020 -17.993 -0.060 7.974 0.447 1.520 0.133 42.823 42.277
5.000 -18.061 -0.025 -18.284 -0.020 -18.292 -0.020 -18.297 -0.019 -18.282 -0.019 -18.183 -0.021 -18.001 -0.062 7.914 0.432 1.539 0.132 42.821 42.264
6.000 -18.059 -0.025 -18.284 -0.021 -18.292 -0.021 -18.297 -0.020 -18.283 -0.020 -18.187 -0.023 -18.007 -0.065 7.854 0.417 1.557 0.131 42.818 42.250
7.000 -18.055 -0.026 -18.282 -0.023 -18.291 -0.022 -18.296 -0.022 -18.283 -0.022 -18.189 -0.024 -18.012 -0.068 7.799 0.403 1.573 0.130 42.814 42.237
8.000 -18.050 -0.027 -18.279 -0.024 -18.288 -0.024 -18.294 -0.024 -18.282 -0.024 -18.189 -0.026 -18.016 -0.071 7.747 0.390 1.588 0.129 42.811 42.223
9.000 -18.043 -0.028 -18.275 -0.026 -18.284 -0.026 -18.290 -0.026 -18.279 -0.026 -18.189 -0.028 -18.018 -0.075 7.698 0.378 1.600 0.128 42.807 42.211
10.000 -18.034 -0.029 -18.269 -0.028 -18.278 -0.028 -18.284 -0.028 -18.275 -0.028 -18.187 -0.031 -18.020 -0.078 7.653 0.368 1.611 0.127 42.802 42.198
11.000 -18.024 -0.031 -18.261 -0.031 -18.271 -0.031 -18.278 -0.031 -18.269 -0.030 -18.183 -0.033 -18.020 -0.082 7.610 0.360 1.620 0.126 42.798 42.187
12.000 -18.012 -0.033 -18.252 -0.033 -18.262 -0.033 -18.270 -0.033 -18.263 -0.033 -18.179 -0.036 -18.018 -0.087 7.571 0.353 1.628 0.126 42.793 42.176
13.000 -17.999 -0.036 -18.242 -0.036 -18.252 -0.036 -18.260 -0.036 -18.254 -0.036 -18.173 -0.039 -18.016 -0.091 7.534 0.347 1.634 0.125 42.787 42.166
14.000 -17.984 -0.039 -18.231 -0.039 -18.241 -0.039 -18.250 -0.039 -18.245 -0.039 -18.166 -0.043 -18.012 -0.096 7.498 0.341 1.638 0.125 42.781 42.156
15.000 -17.968 -0.042 -18.218 -0.042 -18.229 -0.043 -18.238 -0.043 -18.235 -0.043 -18.158 -0.046 -18.008 -0.101 7.464 0.336 1.642 0.124 42.775 42.147
16.000 -17.950 -0.046 -18.204 -0.046 -18.216 -0.046 -18.225 -0.046 -18.223 -0.046 -18.149 -0.050 -18.002 -0.106 7.430 0.332 1.644 0.124 42.769 42.137
17.000 -17.932 -0.050 -18.189 -0.050 -18.201 -0.050 -18.211 -0.050 -18.210 -0.050 -18.138 -0.054 -17.995 -0.111 7.389 0.327 1.649 0.123 42.761 42.126
18.000 -17.912 -0.054 -18.173 -0.053 -18.185 -0.054 -18.196 -0.054 -18.197 -0.054 -18.127 -0.058 -17.987 -0.116 7.356 0.323 1.650 0.123 42.754 42.116
19.000 -17.891 -0.058 -18.156 -0.057 -18.169 -0.058 -18.180 -0.058 -18.182 -0.058 -18.115 -0.062 -17.978 -0.122 7.322 0.319 1.650 0.122 42.746 42.106
20.000 -17.869 -0.063 -18.138 -0.062 -18.151 -0.062 -18.163 -0.062 -18.166 -0.062 -18.101 -0.067 -17.968 -0.128 7.288 0.315 1.650 0.122 42.738 42.095
21.000 -17.846 -0.068 -18.119 -0.066 -18.133 -0.066 -18.145 -0.066 -18.150 -0.066 -18.087 -0.071 -17.957 -0.134 7.254 0.312 1.649 0.121 42.730 42.084
22.000 -17.822 -0.074 -18.099 -0.070 -18.113 -0.071 -18.126 -0.071 -18.132 -0.071 -18.072 -0.076 -17.945 -0.140 7.220 0.308 1.648 0.120 42.721 42.072
23.000 -17.797 -0.079 -18.079 -0.075 -18.093 -0.075 -18.106 -0.075 -18.114 -0.075 -18.056 -0.081 -17.932 -0.146 7.185 0.304 1.647 0.120 42.712 42.060
24.000 -17.772 -0.085 -18.057 -0.080 -18.072 -0.080 -18.086 -0.080 -18.095 -0.080 -18.039 -0.086 -17.919 -0.153 7.151 0.300 1.645 0.119 42.702 42.048
25.000 -17.745 -0.091 -18.035 -0.085 -18.050 -0.085 -18.065 -0.085 -18.075 -0.085 -18.022 -0.091 -17.905 -0.159 7.116 0.296 1.643 0.118 42.693 42.036
26.000 -17.718 -0.097 -18.012 -0.090 -18.028 -0.090 -18.043 -0.090 -18.055 -0.090 -18.004 -0.096 -17.890 -0.166 7.081 0.293 1.640 0.118 42.683 42.023
27.000 -17.690 -0.104 -17.989 -0.095 -18.005 -0.095 -18.021 -0.095 -18.034 -0.095 -17.985 -0.102 -17.874 -0.173 7.046 0.289 1.637 0.117 42.673 42.011
28.000 -17.662 -0.110 -17.965 -0.100 -17.982 -0.100 -17.998 -0.100 -18.013 -0.100 -17.966 -0.107 -17.858 -0.180 7.011 0.286 1.634 0.116 42.663 41.998
29.000 -17.633 -0.117 -17.941 -0.106 -17.958 -0.106 -17.975 -0.105 -17.991 -0.105 -17.946 -0.113 -17.841 -0.187 6.977 0.283 1.631 0.116 42.652 41.985
30.000 -17.604 -0.124 -17.916 -0.111 -17.934 -0.111 -17.951 -0.111 -17.968 -0.111 -17.925 -0.118 -17.823 -0.194 6.943 0.279 1.627 0.115 42.642 41.973
31.000 -17.575 -0.131 -17.891 -0.117 -17.909 -0.116 -17.927 -0.116 -17.945 -0.116 -17.905 -0.124 -17.805 -0.201 6.909 0.276 1.622 0.115 42.631 41.960
32.000 -17.545 -0.138 -17.866 -0.122 -17.884 -0.122 -17.903 -0.122 -17.922 -0.121 -17.883 -0.130 -17.787 -0.209 6.876 0.274 1.618 0.114 42.620 41.948
33.000 -17.515 -0.145 -17.840 -0.128 -17.859 -0.128 -17.878 -0.127 -17.899 -0.127 -17.862 -0.136 -17.768 -0.216 6.843 0.271 1.613 0.113 42.609 41.935
34.000 -17.485 -0.153 -17.814 -0.134 -17.834 -0.133 -17.853 -0.133 -17.875 -0.132 -17.840 -0.142 -17.749 -0.223 6.811 0.269 1.608 0.113 42.598 41.923
35.000 -17.454 -0.160 -17.788 -0.139 -17.808 -0.139 -17.828 -0.138 -17.852 -0.138 -17.818 -0.148 -17.730 -0.231 6.780 0.266 1.603 0.113 42.587 41.911
36.000 -17.424 -0.168 -17.762 -0.145 -17.782 -0.145 -17.803 -0.144 -17.828 -0.144 -17.796 -0.153 -17.710 -0.238 6.749 0.264 1.597 0.112 42.577 41.900
37.000 -17.393 -0.176 -17.736 -0.151 -17.757 -0.150 -17.778 -0.150 -17.804 -0.149 -17.773 -0.159 -17.690 -0.245 6.720 0.262 1.591 0.112 42.566 41.888
38.000 -17.363 -0.183 -17.710 -0.157 -17.731 -0.156 -17.753 -0.155 -17.780 -0.155 -17.751 -0.165 -17.670 -0.253 6.691 0.261 1.585 0.112 42.555 41.877
39.000 -17.332 -0.191 -17.684 -0.163 -17.706 -0.162 -17.728 -0.161 -17.756 -0.160 -17.728 -0.171 -17.649 -0.260 6.662 0.259 1.579 0.111 42.544 41.866
40.000 -17.302 -0.199 -17.659 -0.168 -17.680 -0.167 -17.703 -0.166 -17.732 -0.166 -17.705 -0.177 -17.629 -0.267 6.635 0.258 1.572 0.111 42.533 41.856
41.000 -17.272 -0.207 -17.633 -0.174 -17.655 -0.173 -17.678 -0.172 -17.708 -0.171 -17.683 -0.183 -17.609 -0.274 6.608 0.257 1.566 0.111 42.523 41.846
42.000 -17.242 -0.214 -17.608 -0.180 -17.630 -0.179 -17.653 -0.177 -17.684 -0.177 -17.660 -0.189 -17.588 -0.282 6.582 0.256 1.559 0.111 42.512 41.836
43.000 -17.212 -0.222 -17.582 -0.185 -17.605 -0.184 -17.629 -0.183 -17.661 -0.182 -17.638 -0.195 -17.568 -0.289 6.558 0.256 1.552 0.111 42.502 41.827
44.000 -17.183 -0.230 -17.557 -0.191 -17.580 -0.190 -17.605 -0.188 -17.637 -0.187 -17.616 -0.201 -17.547 -0.296 6.534 0.255 1.545 0.111 42.491 41.818
45.000 -17.154 -0.238 -17.533 -0.197 -17.556 -0.195 -17.581 -0.194 -17.614 -0.193 -17.594 -0.206 -17.527 -0.302 6.511 0.255 1.538 0.111 42.481 41.810
46.000 -17.126 -0.245 -17.509 -0.202 -17.532 -0.200 -17.557 -0.199 -17.592 -0.198 -17.572 -0.212 -17.507 -0.309 6.488 0.255 1.531 0.111 42.471 41.802
47.000 -17.098 -0.253 -17.485 -0.207 -17.509 -0.206 -17.534 -0.204 -17.569 -0.203 -17.550 -0.217 -17.487 -0.316 6.467 0.255 1.524 0.111 42.462 41.794
48.000 -17.070 -0.260 -17.461 -0.213 -17.486 -0.211 -17.511 -0.209 -17.547 -0.208 -17.529 -0.223 -17.468 -0.322 6.447 0.255 1.517 0.112 42.452 41.787
49.000 -17.043 -0.268 -17.438 -0.218 -17.463 -0.216 -17.489 -0.214 -17.526 -0.213 -17.508 -0.228 -17.448 -0.329 6.427 0.256 1.510 0.112 42.443 41.780
50.000 -17.016 -0.275 -17.416 -0.223 -17.441 -0.221 -17.467 -0.219 -17.504 -0.218 -17.487 -0.233 -17.429 -0.335 6.408 0.257 1.502 0.112 42.433 41.774
51.000 -16.990 -0.282 -17.394 -0.228 -17.419 -0.226 -17.446 -0.224 -17.484 -0.222 -17.467 -0.238 -17.410 -0.341 6.390 0.258 1.495 0.113 42.424 41.768
52.000 -16.965 -0.289 -17.373 -0.232 -17.398 -0.230 -17.425 -0.228 -17.464 -0.227 -17.447 -0.243 -17.392 -0.346 6.373 0.259 1.488 0.113 42.416 41.763
53.000 -16.940 -0.296 -17.352 -0.237 -17.378 -0.235 -17.405 -0.232 -17.444 -0.231 -17.428 -0.247 -17.374 -0.352 6.357 0.260 1.481 0.114 42.407 41.758
54.000 -16.916 -0.303 -17.332 -0.241 -17.358 -0.239 -17.385 -0.237 -17.425 -0.235 -17.409 -0.252 -17.356 -0.357 6.341 0.261 1.474 0.114 42.399 41.753
55.000 -16.892 -0.310 -17.312 -0.246 -17.338 -0.243 -17.366 -0.241 -17.406 -0.239 -17.391 -0.256 -17.339 -0.362 6.327 0.263 1.468 0.115 42.391 41.749
56.000 -16.869 -0.316 -17.293 -0.250 -17.320 -0.247 -17.348 -0.244 -17.388 -0.243 -17.373 -0.260 -17.322 -0.367 6.313 0.264 1.461 0.115 42.383 41.745
57.000 -16.847 -0.322 -17.275 -0.254 -17.301 -0.251 -17.330 -0.248 -17.370 -0.246 -17.355 -0.264 -17.305 -0.372 6.299 0.266 1.454 0.116 42.375 41.742
58.000 -16.825 -0.329 -17.257 -0.257 -17.284 -0.254 -17.313 -0.252 -17.353 -0.250 -17.338 -0.267 -17.289 -0.376 6.287 0.268 1.448 0.117 42.368 41.739
59.000 -16.804 -0.334 -17.240 -0.261 -17.267 -0.258 -17.296 -0.255 -17.337 -0.253 -17.322 -0.271 -17.274 -0.380 6.275 0.270 1.442 0.118 42.361 41.736
60.000 -16.784 -0.340 -17.223 -0.264 -17.251 -0.261 -17.280 -0.258 -17.321 -0.256 -17.306 -0.274 -17.259 -0.384 6.264 0.272 1.436 0.118 42.354 41.734
61.000 -16.765 -0.345 -17.208 -0.267 -17.235 -0.264 -17.265 -0.261 -17.306 -0.259 -17.291 -0.277 -17.244 -0.388 6.253 0.274 1.430 0.119 42.348 41.732
62.000 -16.746 -0.351 -17.192 -0.270 -17.220 -0.266 -17.250 -0.263 -17.292 -0.261 -17.276 -0.280 -17.231 -0.391 6.243 0.277 1.424 0.120 42.342 41.730
63.000 -16.728 -0.356 -17.178 -0.272 -17.206 -0.269 -17.236 -0.266 -17.278 -0.263 -17.262 -0.282 -17.217 -0.394 6.234 0.279 1.419 0.121 42.336 41.729
64.000 -16.710 -0.360 -17.164 -0.275 -17.192 -0.271 -17.223 -0.268 -17.265 -0.265 -17.248 -0.284 -17.204 -0.396 6.225 0.282 1.414 0.122 42.330 41.728
65.000 -16.694 -0.365 -17.151 -0.277 -17.180 -0.273 -17.210 -0.269 -17.252 -0.267 -17.235 -0.286 -17.192 -0.399 6.216 0.284 1.409 0.123 42.325 41.727
66.000 -16.677 -0.369 -17.139 -0.279 -17.167 -0.275 -17.198 -0.271 -17.240 -0.269 -17.223 -0.288 -17.180 -0.401 6.208 0.287 1.404 0.124 42.319 41.727
67.000 -16.662 -0.373 -17.127 -0.280 -17.156 -0.276 -17.186 -0.272 -17.229 -0.270 -17.211 -0.289 -17.169 -0.402 6.201 0.290 1.399 0.125 42.315 41.727
68.000 -16.647 -0.376 -17.116 -0.281 -17.145 -0.277 -17.175 -0.273 -17.218 -0.271 -17.200 -0.290 -17.159 -0.404 6.194 0.293 1.395 0.126 42.310 41.727
69.000 -16.633 -0.380 -17.105 -0.282 -17.134 -0.278 -17.165 -0.274 -17.208 -0.272 -17.189 -0.291 -17.148 -0.405 6.187 0.296 1.391 0.127 42.306 41.728
70.000 -16.620 -0.383 -17.095 -0.283 -17.124 -0.279 -17.156 -0.275 -17.198 -0.272 -17.179 -0.292 -17.139 -0.405 6.181 0.299 1.387 0.128 42.301 41.729
71.000 -16.607 -0.385 -17.086 -0.284 -17.115 -0.279 -17.146 -0.275 -17.189 -0.272 -17.170 -0.292 -17.130 -0.406 6.175 0.302 1.384 0.129 42.298 41.730
72.000 -16.595 -0.388 -17.077 -0.284 -17.107 -0.279 -17.138 -0.275 -17.181 -0.272 -17.161 -0.292 -17.121 -0.406 6.170 0.305 1.380 0.131 42.294 41.731
73.000 -16.583 -0.390 -17.069 -0.284 -17.099 -0.279 -17.130 -0.275 -17.173 -0.272 -17.152 -0.291 -17.114 -0.405 6.165 0.308 1.377 0.132 42.291 41.732
74.000 -16.572 -0.392 -17.061 -0.284 -17.091 -0.279 -17.123 -0.274 -17.166 -0.271 -17.144 -0.291 -17.106 -0.405 6.160 0.311 1.374 0.133 42.287 41.734
75.000 -16.561 -0.394 -17.054 -0.283 -17.084 -0.278 -17.116 -0.274 -17.159 -0.270 -17.137 -0.290 -17.099 -0.404 6.155 0.314 1.372 0.134 42.284 41.736
76.000 -16.551 -0.395 -17.048 -0.282 -17.078 -0.277 -17.110 -0.272 -17.153 -0.269 -17.130 -0.289 -17.093 -0.402 6.151 0.317 1.369 0.135 42.282 41.738
77.000 -16.542 -0.396 -17.041 -0.281 -17.072 -0.276 -17.104 -0.271 -17.147 -0.268 -17.124 -0.287 -17.087 -0.401 6.146 0.321 1.367 0.137 42.279 41.740
78.000 -16.533 -0.397 -17.036 -0.279 -17.067 -0.274 -17.099 -0.269 -17.142 -0.266 -17.118 -0.285 -17.082 -0.399 6.142 0.324 1.365 0.138 42.277 41.742
79.000 -16.524 -0.397 -17.031 -0.278 -17.062 -0.273 -17.094 -0.268 -17.137 -0.264 -17.112 -0.283 -17.077 -0.396 6.139 0.327 1.364 0.139 42.275 41.745
80.000 -16.516 -0.397 -17.026 -0.276 -17.057 -0.270 -17.089 -0.265 -17.132 -0.262 -17.107 -0.281 -17.072 -0.394 6.135 0.330 1.362 0.141 42.273 41.747
81.000 -16.508 -0.397 -17.022 -0.274 -17.053 -0.268 -17.085 -0.263 -17.128 -0.259 -17.103 -0.278 -17.068 -0.391 6.132 0.333 1.361 0.142 42.271 41.750
82.000 -16.501 -0.397 -17.018 -0.271 -17.049 -0.266 -17.082 -0.260 -17.124 -0.257 -17.098 -0.275 -17.064 -0.387 6.128 0.336 1.360 0.143 42.269 41.752
83.000 -16.494 -0.396 -17.014 -0.269 -17.046 -0.263 -17.078 -0.258 -17.121 -0.254 -17.094 -0.272 -17.061 -0.384 6.125 0.340 1.359 0.144 42.268 41.755
84.000 -16.487 -0.395 -17.011 -0.266 -17.042 -0.260 -17.075 -0.254 -17.118 -0.250 -17.091 -0.269 -17.058 -0.380 6.122 0.343 1.358 0.146 42.266 41.758
85.000 -16.480 -0.394 -17.008 -0.262 -17.040 -0.257 -17.073 -0.251 -17.116 -0.247 -17.088 -0.265 -17.056 -0.375 6.119 0.346 1.358 0.147 42.265 41.761
86.000 -16.474 -0.392 -17.005 -0.259 -17.037 -0.253 -17.070 -0.248 -17.113 -0.243 -17.085 -0.261 -17.053 -0.371 6.116 0.349 1.357 0.148 42.264 41.764
87.000 -16.468 -0.391 -17.003 -0.255 -17.035 -0.249 -17.068 -0.244 -17.111 -0.239 -17.082 -0.257 -17.051 -0.366 6.113 0.352 1.357 0.150 42.263 41.767
88.000 -16.463 -0.388 -17.000 -0.252 -17.033 -0.245 -17.066 -0.240 -17.109 -0.235 -17.080 -0.252 -17.050 -0.361 6.111 0.355 1.357 0.151 42.262 41.769
89.000 -16.457 -0.386 -16.998 -0.248 -17.031 -0.241 -17.064 -0.235 -17.108 -0.231 -17.078 -0.248 -17.048 -0.356 6.108 0.358 1.357 0.152 42.261 41.772
90.000 -16.451 -0.384 -16.996 -0.243 -17.029 -0.237 -17.063 -0.231 -17.106 -0.226 -17.076 -0.243 -17.047 -0.350 6.106 0.360 1.356 0.153 42.261 41.775
91.000 -16.446 -0.381 -16.995 -0.239 -17.028 -0.232 -17.061 -0.226 -17.105 -0.222 -17.074 -0.238 -17.046 -0.345 6.103 0.363 1.357 0.155 42.260 41.778
92.000 -16.441 -0.378 -16.993 -0.234 -17.026 -0.228 -17.060 -0.222 -17.104 -0.217 -17.073 -0.232 -17.046 -0.339 6.101 0.366 1.357 0.156 42.259 41.781
93.000 -16.436 -0.375 -16.992 -0.229 -17.025 -0.223 -17.059 -0.217 -17.103 -0.212 -17.071 -0.227 -17.045 -0.332 6.099 0.369 1.357 0.157 42.259 41.784
94.000 -16.431 -0.371 -16.990 -0.225 -17.023 -0.218 -17.058 -0.212 -17.102 -0.206 -17.070 -0.221 -17.045 -0.326 6.097 0.371 1.357 0.158 42.258 41.786
95.000 -16.426 -0.368 -16.989 -0.219 -17.022 -0.213 -17.057 -0.206 -17.101 -0.201 -17.069 -0.215 -17.044 -0.319 6.095 0.374 1.357 0.159 42.258 41.789
96.000 -16.420 -0.364 -16.987 -0.214 -17.021 -0.207 -17.056 -0.201 -17.100 -0.195 -17.068 -0.209 -17.044 -0.313 6.094 0.376 1.357 0.160 42.258 41.791
97.000 -16.415 -0.360 -16.986 -0.209 -17.020 -0.202 -17.055 -0.195 -17.099 -0.190 -17.067 -0.203 -17.044 -0.306 6.093 0.379 1.357 0.161 42.257 41.794
98.000 -16.410 -0.356 -16.984 -0.203 -17.018 -0.196 -17.054 -0.190 -17.098 -0.184 -17.066 -0.197 -17.044 -0.299 6.092 0.381 1.357 0.162 42.257 41.796
99.000 -16.405 -0.352 -16.983 -0.198 -17.017 -0.191 -17.052 -0.184 -17.097 -0.178 -17.065 -0.190 -17.044 -0.292 6.091 0.383 1.357 0.163 42.257 41.798
100.000 -16.399 -0.347 -16.981 -0.192 -17.016 -0.185 -17.051 -0.178 -17.096 -0.172 -17.064 -0.184 -17.044 -0.285 6.090 0.385 1.357 0.164 42.256 41.800
101.000 -16.394 -0.343 -16.979 -0.186 -17.014 -0.179 -17.050 -0.172 -17.096 -0.166 -17.063 -0.177 -17.044 -0.277 6.090 0.387 1.356 0.165 42.256 41.802
102.000 -16.388 -0.338 -16.977 -0.181 -17.012 -0.173 -17.049 -0.166 -17.094 -0.160 -17.062 -0.171 -17.044 -0.270 6.090 0.389 1.355 0.165 42.255 41.804
103.000 -16.382 -0.333 -16.975 -0.175 -17.011 -0.167 -17.047 -0.160 -17.093 -0.154 -17.061 -0.164 -17.044 -0.263 6.091 0.391 1.355 0.166 42.255 41.805
104.000 -16.376 -0.328 -16.973 -0.169 -17.009 -0.161 -17.045 -0.154 -17.092 -0.148 -17.060 -0.157 -17.044 -0.255 6.092 0.393 1.353 0.166 42.255 41.806
105.000 -16.370 -0.323 -16.971 -0.163 -17.007 -0.155 -17.044 -0.148 -17.091 -0.142 -17.059 -0.151 -17.043 -0.248 6.093 0.395 1.352 0.166 42.254 41.807
106.000 -16.364 -0.318 -16.968 -0.157 -17.004 -0.149 -17.042 -0.142 -17.089 -0.135 -17.057 -0.144 -17.043 -0.241 6.095 0.396 1.350 0.167 42.254 41.808
107.000 -16.357 -0.313 -16.965 -0.151 -17.002 -0.143 -17.039 -0.136 -17.087 -0.129 -17.056 -0.137 -17.043 -0.233 6.097 0.398 1.348 0.167 42.253 41.809
108.000 -16.350 -0.308 -16.963 -0.145 -16.999 -0.138 -17.037 -0.130 -17.085 -0.123 -17.054 -0.130 -17.042 -0.226 6.101 0.399 1.346 0.167 42.252 41.809
109.000 -16.343 -0.303 -16.959 -0.140 -16.996 -0.132 -17.034 -0.124 -17.083 -0.117 -17.052 -0.124 -17.041 -0.219 6.104 0.400 1.343 0.167 42.252 41.809
110.000 -16.336 -0.297 -16.956 -0.134 -16.993 -0.126 -17.031 -0.118 -17.081 -0.111 -17.050 -0.117 -17.040 -0.212 6.108 0.402 1.340 0.166 42.251 41.809
111.000 -16.328 -0.292 -16.952 -0.128 -16.989 -0.120 -17.028 -0.112 -17.078 -0.105 -17.048 -0.111 -17.039 -0.205 6.113 0.403 1.337 0.166 42.250 41.809
112.000 -16.320 -0.287 -16.948 -0.122 -16.986 -0.114 -17.025 -0.107 -17.075 -0.099 -17.045 -0.104 -17.037 -0.198 6.119 0.403 1.333 0.165 42.249 41.808
113.000 -16.312 -0.281 -16.944 -0.117 -16.982 -0.109 -17.021 -0.101 -17.072 -0.094 -17.043 -0.098 -17.036 -0.191 6.126 0.404 1.328 0.165 42.248 41.807
114.000 -16.303 -0.276 -16.939 -0.112 -16.978 -0.103 -17.017 -0.095 -17.069 -0.088 -17.040 -0.092 -17.034 -0.185 6.133 0.404 1.324 0.164 42.247 41.805
115.000 -16.294 -0.270 -16.934 -0.106 -16.973 -0.098 -17.013 -0.090 -17.065 -0.083 -17.037 -0.086 -17.031 -0.179 6.141 0.405 1.319 0.163 42.246 41.803
116.000 -16.285 -0.265 -16.929 -0.101 -16.968 -0.093 -17.009 -0.085 -17.062 -0.077 -17.034 -0.081 -17.029 -0.173 6.149 0.405 1.313 0.161 42.245 41.801
117.000 -16.276 -0.260 -16.924 -0.096 -16.963 -0.088 -17.004 -0.080 -17.058 -0.072 -17.030 -0.075 -17.026 -0.167 6.157 0.405 1.308 0.160 42.243 41.799
118.000 -16.266 -0.254 -16.918 -0.091 -16.958 -0.083 -16.999 -0.075 -17.053 -0.067 -17.026 -0.070 -17.023 -0.162 6.166 0.404 1.302 0.159 42.242 41.796
119.000 -16.256 -0.249 -16.912 -0.087 -16.952 -0.078 -16.993 -0.070 -17.049 -0.063 -17.022 -0.066 -17.020 -0.157 6.174 0.404 1.296 0.157 42.240 41.793
120.000 -16.245 -0.244 -16.906 -0.082 -16.946 -0.074 -16.988 -0.066 -17.044 -0.059 -17.018 -0.061 -17.016 -0.152 6.181 0.403 1.291 0.156 42.239 41.789
121.000 -16.235 -0.238 -16.899 -0.078 -16.940 -0.069 -16.982 -0.061 -17.038 -0.055 -17.013 -0.058 -17.012 -0.147 6.186 0.402 1.286 0.154 42.237 41.786
122.000 -16.224 -0.233 -16.892 -0.074 -16.933 -0.065 -16.976 -0.057 -17.033 -0.051 -17.008 -0.055 -17.008 -0.143 6.189 0.401 1.282 0.153 42.235 41.782
123.000 -16.212 -0.228 -16.885 -0.070 -16.926 -0.062 -16.969 -0.054 -17.027 -0.048 -17.003 -0.052 -17.003 -0.139 6.188 0.399 1.279 0.153 42.233 41.779
124.000 -16.201 -0.223 -16.877 -0.067 -16.919 -0.058 -16.962 -0.051 -17.021 -0.045 -16.998 -0.050 -16.998 -0.136 6.183 0.398 1.278 0.152 42.231 41.776
125.000 -16.189 -0.218 -16.869 -0.064 -16.911 -0.055 -16.955 -0.048 -17.015 -0.043 -16.992 -0.049 -16.993 -0.133 6.173 0.397 1.278 0.153 42.228 41.774
126.000 -16.177 -0.213 -16.861 -0.061 -16.903 -0.053 -16.948 -0.045 -17.008 -0.041 -16.986 -0.048 -16.987 -0.130 6.160 0.396 1.280 0.154 42.225 41.772
127.000 -16.164 -0.208 -16.853 -0.058 -16.895 -0.050 -16.940 -0.043 -17.001 -0.040 -16.980 -0.048 -16.981 -0.127 6.142 0.396 1.283 0.155 42.222 41.771
128.000 -16.151 -0.204 -16.844 -0.056 -16.887 -0.048 -16.932 -0.041 -16.994 -0.039 -16.973 -0.048 -16.975 -0.125 6.118 0.396 1.288 0.157 42.219 41.770
129.000 -16.138 -0.199 -16.835 -0.054 -16.878 -0.046 -16.924 -0.040 -16.987 -0.039 -16.967 -0.049 -16.968 -0.123 6.091 0.396 1.295 0.160 42.216 41.771
130.000 -16.125 -0.194 -16.826 -0.052 -16.869 -0.045 -16.915 -0.039 -16.979 -0.039 -16.960 -0.050 -16.961 -0.122 6.060 0.396 1.303 0.163 42.212 41.771
131.000 -16.112 -0.190 -16.816 -0.051 -16.860 -0.044 -16.907 -0.038 -16.971 -0.039 -16.952 -0.051 -16.954 -0.121 6.027 0.397 1.312 0.167 42.209 41.772
132.000 -16.098 -0.185 -16.807 -0.050 -16.851 -0.043 -16.898 -0.038 -16.963 -0.040 -16.945 -0.053 -16.946 -0.120 5.992 0.398 1.321 0.171 42.205 41.774
133.000 -16.084 -0.181 -16.797 -0.049 -16.841 -0.042 -16.888 -0.038 -16.955 -0.041 -16.937 -0.055 -16.938 -0.119 5.956 0.399 1.331 0.175 42.201 41.775
134.000 -16.070 -0.177 -16.787 -0.048 -16.831 -0.042 -16.879 -0.038 -16.946 -0.042 -16.929 -0.056 -16.929 -0.118 5.919 0.400 1.342 0.179 42.197 41.777
135.000 -16.056 -0.173 -16.776 -0.047 -16.821 -0.042 -16.869 -0.038 -16.937 -0.042 -16.921 -0.058 -16.921 -0.118 5.881 0.402 1.352 0.184 42.193 41.779
136.000 -16.041 -0.169 -16.765 -0.047 -16.811 -0.042 -16.859 -0.039 -16.928 -0.043 -16.913 -0.060 -16.911 -0.118 5.844 0.403 1.363 0.188 42.189 41.780
137.000 -16.027 -0.165 -16.755 -0.047 -16.801 -0.042 -16.849 -0.039 -16.919 -0.044 -16.904 -0.062 -16.902 -0.118 5.808 0.404 1.374 0.193 42.185 41.782
138.000 -16.012 -0.162 -16.744 -0.047 -16.790 -0.042 -16.839 -0.040 -16.910 -0.045 -16.895 -0.063 -16.892 -0.118 5.771 0.405 1.384 0.198 42.181 41.783
139.000 -15.997 -0.158 -16.732 -0.047 -16.779 -0.043 -16.829 -0.040 -16.900 -0.046 -16.886 -0.065 -16.882 -0.118 5.736 0.406 1.395 0.202 42.176 41.784
140.000 -15.982 -0.155 -16.721 -0.047 -16.768 -0.043 -16.818 -0.041 -16.890 -0.047 -16.877 -0.066 -16.872 -0.119 5.702 0.407 1.405 0.207 42.172 41.785
141.000 -15.967 -0.152 -16.710 -0.047 -16.757 -0.043 -16.807 -0.041 -16.880 -0.048 -16.867 -0.068 -16.861 -0.119 5.668 0.408 1.414 0.211 42.168 41.785
142.000 -15.952 -0.149 -16.698 -0.047 -16.746 -0.043 -16.797 -0.042 -16.870 -0.049 -16.857 -0.069 -16.850 -0.119 5.637 0.409 1.423 0.215 42.163 41.786
143.000 -15.936 -0.146 -16.686 -0.047 -16.734 -0.044 -16.786 -0.042 -16.860 -0.049 -16.848 -0.070 -16.838 -0.120 5.606 0.409 1.432 0.219 42.159 41.786
144.000 -15.921 -0.143 -16.674 -0.047 -16.723 -0.044 -16.774 -0.043 -16.850 -0.050 -16.838 -0.071 -16.827 -0.120 5.577 0.410 1.440 0.223 42.155 41.786
145.000 -15.906 -0.141 -16.662 -0.047 -16.711 -0.044 -16.763 -0.043 -16.839 -0.050 -16.827 -0.072 -16.815 -0.121 5.550 0.411 1.447 0.227 42.151 41.785
146.000 -15.890 -0.139 -16.650 -0.047 -16.699 -0.045 -16.752 -0.043 -16.829 -0.050 -16.817 -0.072 -16.803 -0.122 5.524 0.411 1.453 0.230 42.146 41.785
147.000 -15.875 -0.137 -16.638 -0.047 -16.687 -0.045 -16.740 -0.043 -16.818 -0.050 -16.807 -0.073 -16.790 -0.123 5.500 0.412 1.458 0.234 42.142 41.784
148.000 -15.859 -0.135 -16.626 -0.048 -16.676 -0.045 -16.729 -0.044 -16.807 -0.050 -16.796 -0.073 -16.777 -0.123 5.478 0.412 1.463 0.237 42.138 41.783
149.000 -15.844 -0.133 -16.614 -0.048 -16.664 -0.045 -16.717 -0.044 -16.797 -0.050 -16.785 -0.073 -16.764 -0.124 5.457 0.413 1.466 0.240 42.133 41.782
150.000 -15.828 -0.132 -16.601 -0.048 -16.652 -0.045 -16.706 -0.044 -16.786 -0.050 -16.775 -0.074 -16.751 -0.125 5.438 0.414 1.469 0.242 42.129 41.781
151.000 -15.813 -0.131 -16.589 -0.048 -16.640 -0.045 -16.694 -0.044 -16.775 -0.050 -16.764 -0.074 -16.737 -0.126 5.419 0.414 1.472 0.245 42.124 41.779
152.000 -15.797 -0.130 -16.577 -0.048 -16.627 -0.045 -16.682 -0.044 -16.764 -0.050 -16.753 -0.074 -16.723 -0.127 5.405 0.415 1.472 0.246 42.120 41.777
153.000 -15.782 -0.130 -16.564 -0.048 -16.615 -0.045 -16.670 -0.044 -16.752 -0.050 -16.741 -0.073 -16.709 -0.129 5.393 0.417 1.471 0.248 42.115 41.776
154.000 -15.766 -0.129 -16.552 -0.048 -16.603 -0.045 -16.659 -0.044 -16.741 -0.050 -16.730 -0.073 -16.695 -0.130 5.382 0.418 1.469 0.250 42.111 41.774
155.000 -15.751 -0.129 -16.539 -0.048 -16.591 -0.045 -16.647 -0.044 -16.730 -0.050 -16.719 -0.073 -16.680 -0.131 5.373 0.420 1.466 0.251 42.106 41.772
156.000 -15.736 -0.129 -16.527 -0.049 -16.579 -0.046 -16.635 -0.044 -16.719 -0.050 -16.707 -0.073 -16.666 -0.133 5.366 0.421 1.462 0.252 42.102 41.770
157.000 -15.721 -0.130 -16.514 -0.049 -16.567 -0.046 -16.623 -0.044 -16.708 -0.049 -16.696 -0.072 -16.651 -0.135 5.360 0.423 1.458 0.252 42.097 41.768
158.000 -15.706 -0.130 -16.502 -0.049 -16.554 -0.046 -16.611 -0.044 -16.696 -0.049 -16.684 -0.072 -16.636 -0.137 5.356 0.425 1.452 0.253 42.092 41.765
159.000 -15.691 -0.131 -16.489 -0.049 -16.542 -0.046 -16.599 -0.044 -16.685 -0.049 -16.673 -0.072 -16.620 -0.139 5.353 0.427 1.446 0.253 42.087 41.763
160.000 -15.676 -0.132 -16.477 -0.050 -16.530 -0.046 -16.587 -0.044 -16.674 -0.050 -16.661 -0.071 -16.605 -0.141 5.351 0.429 1.439 0.253 42.083 41.761
161.000 -15.661 -0.134 -16.465 -0.050 -16.518 -0.047 -16.575 -0.044 -16.662 -0.050 -16.649 -0.071 -16.589 -0.144 5.350 0.431 1.431 0.253 42.078 41.758
162.000 -15.646 -0.135 -16.452 -0.050 -16.506 -0.047 -16.563 -0.045 -16.651 -0.050 -16.637 -0.071 -16.573 -0.147 5.350 0.434 1.423 0.253 42.073 41.755
163.000 -15.632 -0.137 -16.440 -0.051 -16.493 -0.047 -16.552 -0.045 -16.639 -0.050 -16.625 -0.071 -16.557 -0.150 5.351 0.436 1.415 0.253 42.068 41.753
164.000 -15.617 -0.139 -16.427 -0.051 -16.481 -0.047 -16.540 -0.045 -16.628 -0.051 -16.613 -0.071 -16.540 -0.153 5.353 0.439 1.405 0.253 42.063 41.750
165.000 -15.603 -0.141 -16.415 -0.051 -16.469 -0.048 -16.528 -0.046 -16.617 -0.051 -16.601 -0.071 -16.524 -0.156 5.356 0.441 1.396 0.252 42.058 41.747
166.000 -15.589 -0.143 -16.403 -0.051 -16.457 -0.048 -16.516 -0.046 -16.605 -0.052 -16.589 -0.071 -16.507 -0.160 5.360 0.444 1.386 0.252 42.053 41.745
167.000 -15.574 -0.145 -16.390 -0.052 -16.445 -0.048 -16.504 -0.047 -16.594 -0.052 -16.577 -0.071 -16.490 -0.164 5.364 0.447 1.376 0.251 42.048 41.742
168.000 -15.560 -0.148 -16.378 -0.052 -16.433 -0.049 -16.492 -0.047 -16.582 -0.053 -16.565 -0.071 -16.473 -0.168 5.369 0.450 1.366 0.250 42.043 41.739
169.000 -15.546 -0.151 -16.366 -0.052 -16.421 -0.049 -16.480 -0.047 -16.571 -0.054 -16.553 -0.071 -16.456 -0.172 5.375 0.452 1.355 0.249 42.038 41.736
170.000 -15.532 -0.153 -16.354 -0.052 -16.409 -0.049 -16.468 -0.047 -16.559 -0.055 -16.540 -0.071 -16.439 -0.176 5.382 0.455 1.344 0.248 42.034 41.733
171.000 -15.519 -0.156 -16.341 -0.052 -16.396 -0.049 -16.457 -0.048 -16.547 -0.055 -16.528 -0.072 -16.421 -0.181 5.389 0.458 1.333 0.247 42.029 41.730
172.000 -15.505 -0.159 -16.329 -0.052 -16.384 -0.049 -16.445 -0.048 -16.536 -0.056 -16.515 -0.072 -16.404 -0.185 5.397 0.461 1.322 0.246 42.024 41.727
173.000 -15.491 -0.162 -16.317 -0.051 -16.372 -0.048 -16.433 -0.048 -16.524 -0.056 -16.503 -0.072 -16.386 -0.190 5.407 0.464 1.310 0.245 42.019 41.724
174.000 -15.478 -0.166 -16.304 -0.051 -16.360 -0.048 -16.421 -0.048 -16.512 -0.057 -16.490 -0.072 -16.368 -0.195 5.417 0.467 1.298 0.243 42.014 41.721
175.000 -15.464 -0.169 -16.292 -0.051 -16.348 -0.048 -16.408 -0.047 -16.500 -0.057 -16.477 -0.073 -16.350 -0.200 5.428 0.470 1.285 0.241 42.009 41.718
176.000 -15.451 -0.173 -16.279 -0.050 -16.335 -0.047 -16.396 -0.047 -16.488 -0.058 -16.464 -0.073 -16.331 -0.206 5.440 0.473 1.272 0.240 42.004 41.714
177.000 -15.437 -0.176 -16.267 -0.049 -16.323 -0.046 -16.384 -0.047 -16.476 -0.058 -16.451 -0.073 -16.313 -0.211 5.453 0.475 1.259 0.237 42.000 41.710
178.000 -15.424 -0.180 -16.254 -0.048 -16.311 -0.045 -16.372 -0.046 -16.464 -0.058 -16.438 -0.073 -16.294 -0.216 5.468 0.478 1.246 0.235 41.995 41.706
179.000 -15.411 -0.184 -16.242 -0.047 -16.298 -0.044 -16.359 -0.045 -16.452 -0.058 -16.425 -0.073 -16.275 -0.222 5.483 0.480 1.232 0.233 41.990 41.702
180.000 -15.397 -0.188 -16.229 -0.046 -16.285 -0.043 -16.347 -0.044 -16.440 -0.058 -16.411 -0.073 -16.256 -0.227 5.500 0.482 1.217 0.230 41.985 41.697
181.000 -15.384 -0.193 -16.216 -0.045 -16.273 -0.042 -16.334 -0.043 -16.427 -0.058 -16.398 -0.073 -16.237 -0.233 5.517 0.484 1.203 0.227 41.980 41.692
182.000 -15.370 -0.197 -16.203 -0.044 -16.260 -0.040 -16.322 -0.042 -16.415 -0.058 -16.384 -0.073 -16.217 -0.239 5.536 0.486 1.188 0.223 41.975 41.686
183.000 -15.357 -0.202 -16.190 -0.043 -16.247 -0.039 -16.309 -0.041 -16.402 -0.057 -16.370 -0.072 -16.197 -0.245 5.555 0.487 1.173 0.220 41.970 41.680
184.000 -15.344 -0.207 -16.177 -0.042 -16.234 -0.038 -16.296 -0.040 -16.389 -0.057 -16.356 -0.072 -16.178 -0.251 5.574 0.489 1.158 0.216 41.965 41.674
185.000 -15.330 -0.212 -16.164 -0.042 -16.220 -0.037 -16.282 -0.039 -16.375 -0.057 -16.341 -0.072 -16.157 -0.257 5.594 0.490 1.142 0.213 41.959 41.668
186.000 -15.316 -0.218 -16.150 -0.042 -16.207 -0.037 -16.269 -0.039 -16.362 -0.056 -16.327 -0.072 -16.137 -0.263 5.614 0.492 1.127 0.209 41.954 41.662
187.000 -15.303 -0.224 -16.136 -0.043 -16.193 -0.038 -16.255 -0.039 -16.348 -0.056 -16.312 -0.071 -16.116 -0.269 5.635 0.495 1.111 0.206 41.948 41.656
188.000 -15.289 -0.231 -16.122 -0.045 -16.179 -0.039 -16.241 -0.040 -16.335 -0.057 -16.297 -0.071 -16.096 -0.276 5.656 0.499 1.095 0.203 41.942 41.651
189.000 -15.275 -0.238 -16.108 -0.048 -16.165 -0.042 -16.227 -0.042 -16.320 -0.057 -16.281 -0.071 -16.074 -0.282 5.676 0.504 1.080 0.200 41.936 41.646
190.000 -15.261 -0.245 -16.093 -0.052 -16.150 -0.045 -16.213 -0.045 -16.306 -0.059 -16.266 -0.072 -16.053 -0.289 5.695 0.510 1.064 0.197 41.929 41.641
191.000 -15.246 -0.253 -16.079 -0.057 -16.136 -0.050 -16.198 -0.049 -16.291 -0.061 -16.250 -0.073 -16.032 -0.295 5.711 0.517 1.050 0.196 41.922 41.637
192.000 -15.232 -0.261 -16.064 -0.063 -16.121 -0.056 -16.183 -0.054 -16.276 -0.064 -16.234 -0.074 -16.010 -0.302 5.724 0.524 1.036 0.194 41.915 41.634
193.000 -15.217 -0.270 -16.048 -0.070 -16.105 -0.063 -16.168 -0.060 -16.261 -0.067 -16.217 -0.076 -15.987 -0.310 5.733 0.532 1.024 0.194 41.907 41.631
194.000 -15.202 -0.280 -16.033 -0.079 -16.090 -0.071 -16.152 -0.067 -16.245 -0.072 -16.200 -0.079 -15.965 -0.317 5.737 0.541 1.013 0.194 41.899 41.629
195.000 -15.187 -0.290 -16.017 -0.088 -16.074 -0.080 -16.136 -0.075 -16.229 -0.078 -16.183 -0.082 -15.942 -0.325 5.738 0.549 1.004 0.194 41.891 41.627
196.000 -15.171 -0.301 -16.000 -0.098 -16.057 -0.090 -16.119 -0.084 -16.212 -0.084 -16.165 -0.087 -15.919 -0.332 5.736 0.558 0.995 0.195 41.883 41.625
197.000 -15.155 -0.313 -15.983 -0.109 -16.040 -0.100 -16.103 -0.095 -16.195 -0.092 -16.147 -0.093 -15.896 -0.341 5.732 0.567 0.986 0.196 41.874 41.623
198.000 -15.139 -0.325 -15.966 -0.120 -16.023 -0.112 -16.085 -0.106 -16.178 -0.101 -16.129 -0.099 -15.872 -0.349 5.728 0.576 0.978 0.198 41.865 41.621
