"Time (MJD)" Misc/Atlas.cyan Misc/Atlas.cyan_err Misc/Atlas.orange Misc/Atlas.orange_err PAN-STARRS/PS1.g PAN-STARRS/PS1.g_err PAN-STARRS/PS1.i PAN-STARRS/PS1.i_err PAN-STARRS/PS1.r PAN-STARRS/PS1.r_err PAN-STARRS/PS1.w PAN-STARRS/PS1.w_err PAN-STARRS/PS1.z PAN-STARRS/PS1.z_err Palomar/ZTF.g Palomar/ZTF.g_err Palomar/ZTF.r Palomar/ZTF.r_err "Temp./1e3 (K)" "Temp. Err." "Radius/1e15 (cm)" "Radius Err." "Log10(Bol. Lum)" "Log10(Bol. Err)"
-8.000 -18.047 -0.076 -18.086 -0.077 -18.043 -0.104 -17.681 -0.074 -17.632 -0.068 -17.575 -0.068 -17.424 -0.079 -16.207 -0.190 -16.202 -0.547 26.178 27.053 0.310 0.246 43.507 44.153
-7.000 -18.100 -0.062 -18.144 -0.063 -18.116 -0.089 -17.780 -0.059 -17.738 -0.054 -17.689 -0.055 -17.555 -0.066 -16.408 -0.177 -16.447 -0.482 33.199 33.113 0.277 0.196 43.822 44.449
-6.000 -18.142 -0.050 -18.190 -0.051 -18.178 -0.076 -17.868 -0.047 -17.832 -0.042 -17.791 -0.043 -17.674 -0.055 -16.595 -0.167 -16.678 -0.419 34.833 28.302 0.281 0.160 43.917 44.455
-5.000 -18.174 -0.040 -18.226 -0.041 -18.229 -0.066 -17.943 -0.037 -17.913 -0.033 -17.881 -0.034 -17.779 -0.047 -16.769 -0.160 -16.895 -0.359 33.088 21.039 0.302 0.138 43.892 44.324
-4.000 -18.195 -0.034 -18.252 -0.034 -18.269 -0.058 -18.007 -0.030 -17.983 -0.026 -17.958 -0.028 -17.872 -0.040 -16.930 -0.154 -17.097 -0.303 29.452 14.982 0.339 0.129 43.789 44.126
-3.000 -18.208 -0.029 -18.268 -0.029 -18.300 -0.052 -18.060 -0.027 -18.042 -0.023 -18.024 -0.023 -17.953 -0.035 -17.077 -0.150 -17.286 -0.251 15.062 2.465 0.624 0.106 43.154 43.022
-2.000 -18.212 -0.028 -18.276 -0.026 -18.321 -0.048 -18.103 -0.026 -18.090 -0.022 -18.079 -0.021 -18.023 -0.032 -17.212 -0.147 -17.459 -0.203 13.221 1.610 0.731 0.100 43.066 42.813
-1.000 -18.207 -0.027 -18.275 -0.026 -18.334 -0.046 -18.136 -0.028 -18.128 -0.023 -18.124 -0.021 -18.082 -0.030 -17.334 -0.144 -17.619 -0.160 11.971 1.180 0.832 0.099 43.005 42.669
-0.000 -18.195 -0.028 -18.266 -0.026 -18.339 -0.046 -18.160 -0.031 -18.157 -0.026 -18.159 -0.022 -18.130 -0.029 -17.444 -0.142 -17.764 -0.125 11.016 0.919 0.931 0.100 42.959 42.557
1.000 -18.176 -0.030 -18.251 -0.027 -18.336 -0.046 -18.176 -0.034 -18.177 -0.029 -18.185 -0.024 -18.169 -0.029 -17.542 -0.140 -17.894 -0.100 10.223 0.737 1.034 0.101 42.920 42.462
2.000 -18.151 -0.032 -18.229 -0.029 -18.327 -0.048 -18.184 -0.038 -18.190 -0.031 -18.203 -0.025 -18.199 -0.029 -17.629 -0.138 -18.011 -0.092 9.545 0.610 1.140 0.104 42.886 42.384
3.000 -18.121 -0.033 -18.202 -0.030 -18.311 -0.049 -18.185 -0.041 -18.195 -0.033 -18.213 -0.027 -18.220 -0.029 -17.705 -0.136 -18.115 -0.099 8.991 0.527 1.244 0.110 42.858 42.325
4.000 -18.085 -0.034 -18.169 -0.032 -18.290 -0.051 -18.180 -0.043 -18.193 -0.035 -18.216 -0.028 -18.234 -0.029 -17.771 -0.133 -18.205 -0.116 8.546 0.466 1.340 0.115 42.834 42.277
5.000 -18.045 -0.036 -18.132 -0.033 -18.264 -0.053 -18.169 -0.045 -18.186 -0.037 -18.213 -0.029 -18.241 -0.030 -17.828 -0.130 -18.282 -0.137 8.175 0.416 1.429 0.118 42.813 42.232
6.000 -18.002 -0.037 -18.092 -0.033 -18.235 -0.055 -18.153 -0.047 -18.173 -0.038 -18.205 -0.030 -18.241 -0.030 -17.875 -0.127 -18.347 -0.160 7.856 0.373 1.513 0.121 42.793 42.188
7.000 -17.955 -0.037 -18.048 -0.034 -18.201 -0.056 -18.133 -0.048 -18.156 -0.039 -18.191 -0.030 -18.236 -0.030 -17.914 -0.124 -18.399 -0.181 7.579 0.337 1.591 0.123 42.775 42.147
8.000 -17.906 -0.038 -18.001 -0.035 -18.164 -0.058 -18.110 -0.049 -18.134 -0.039 -18.173 -0.030 -18.226 -0.030 -17.946 -0.120 -18.440 -0.200 7.337 0.307 1.664 0.124 42.757 42.108
9.000 -17.855 -0.039 -17.953 -0.035 -18.125 -0.059 -18.083 -0.050 -18.110 -0.040 -18.152 -0.030 -18.212 -0.030 -17.969 -0.116 -18.470 -0.218 7.124 0.282 1.730 0.126 42.740 42.072
10.000 -17.803 -0.039 -17.903 -0.035 -18.084 -0.059 -18.053 -0.050 -18.083 -0.039 -18.127 -0.030 -18.194 -0.030 -17.987 -0.112 -18.490 -0.233 6.936 0.262 1.791 0.127 42.723 42.039
11.000 -17.750 -0.039 -17.852 -0.035 -18.042 -0.060 -18.022 -0.049 -18.053 -0.039 -18.100 -0.030 -18.174 -0.030 -17.998 -0.108 -18.500 -0.245 6.769 0.245 1.845 0.128 42.707 42.008
12.000 -17.696 -0.039 -17.800 -0.035 -17.998 -0.060 -17.989 -0.048 -18.022 -0.038 -18.072 -0.029 -18.150 -0.030 -18.004 -0.103 -18.501 -0.255 6.622 0.230 1.894 0.128 42.691 41.980
13.000 -17.642 -0.040 -17.748 -0.035 -17.954 -0.060 -17.955 -0.047 -17.990 -0.037 -18.042 -0.029 -18.125 -0.030 -18.006 -0.099 -18.493 -0.262 6.490 0.218 1.936 0.129 42.676 41.953
14.000 -17.589 -0.039 -17.697 -0.034 -17.910 -0.059 -17.921 -0.046 -17.957 -0.036 -18.011 -0.028 -18.099 -0.030 -18.003 -0.094 -18.477 -0.267 6.373 0.208 1.973 0.130 42.661 41.928
15.000 -17.536 -0.039 -17.645 -0.033 -17.866 -0.059 -17.887 -0.045 -17.924 -0.035 -17.979 -0.027 -18.071 -0.030 -17.997 -0.089 -18.455 -0.270 6.268 0.199 2.006 0.130 42.646 41.904
16.000 -17.485 -0.039 -17.595 -0.032 -17.822 -0.058 -17.852 -0.043 -17.891 -0.033 -17.948 -0.026 -18.044 -0.030 -17.987 -0.084 -18.425 -0.270 6.172 0.190 2.034 0.130 42.631 41.880
17.000 -17.434 -0.039 -17.546 -0.032 -17.779 -0.058 -17.819 -0.041 -17.859 -0.032 -17.917 -0.025 -18.016 -0.030 -17.975 -0.080 -18.390 -0.268 6.086 0.183 2.059 0.129 42.617 41.858
18.000 -17.385 -0.039 -17.498 -0.031 -17.736 -0.057 -17.786 -0.039 -17.827 -0.030 -17.887 -0.024 -17.989 -0.030 -17.961 -0.075 -18.350 -0.264 6.007 0.176 2.081 0.129 42.604 41.835
19.000 -17.338 -0.039 -17.451 -0.030 -17.695 -0.056 -17.754 -0.037 -17.796 -0.028 -17.858 -0.023 -17.962 -0.030 -17.945 -0.070 -18.305 -0.258 5.934 0.169 2.102 0.128 42.591 41.813
20.000 -17.292 -0.039 -17.407 -0.029 -17.655 -0.056 -17.723 -0.035 -17.767 -0.027 -17.830 -0.022 -17.936 -0.030 -17.928 -0.066 -18.256 -0.250 5.865 0.163 2.121 0.127 42.579 41.792
21.000 -17.248 -0.039 -17.363 -0.028 -17.616 -0.055 -17.694 -0.033 -17.739 -0.025 -17.803 -0.022 -17.912 -0.030 -17.911 -0.062 -18.205 -0.241 5.800 0.157 2.141 0.126 42.568 41.772
22.000 -17.206 -0.040 -17.322 -0.028 -17.578 -0.056 -17.666 -0.031 -17.713 -0.024 -17.778 -0.021 -17.889 -0.030 -17.893 -0.058 -18.151 -0.230 5.736 0.152 2.162 0.125 42.557 41.753
23.000 -17.166 -0.041 -17.282 -0.029 -17.542 -0.056 -17.639 -0.030 -17.688 -0.023 -17.755 -0.021 -17.868 -0.030 -17.875 -0.054 -18.094 -0.218 5.674 0.148 2.185 0.125 42.547 41.737
24.000 -17.128 -0.043 -17.244 -0.030 -17.506 -0.058 -17.614 -0.030 -17.665 -0.023 -17.733 -0.021 -17.848 -0.031 -17.857 -0.051 -18.037 -0.205 5.612 0.144 2.211 0.126 42.538 41.723
25.000 -17.091 -0.045 -17.207 -0.032 -17.472 -0.060 -17.591 -0.030 -17.643 -0.023 -17.713 -0.022 -17.830 -0.031 -17.840 -0.048 -17.979 -0.192 5.551 0.141 2.240 0.126 42.531 41.712
26.000 -17.056 -0.048 -17.172 -0.035 -17.439 -0.062 -17.569 -0.031 -17.624 -0.024 -17.695 -0.023 -17.814 -0.032 -17.823 -0.045 -17.920 -0.178 5.493 0.139 2.269 0.128 42.524 41.704
27.000 -17.023 -0.051 -17.138 -0.038 -17.407 -0.066 -17.549 -0.032 -17.605 -0.026 -17.679 -0.024 -17.800 -0.032 -17.807 -0.043 -17.862 -0.165 5.441 0.138 2.295 0.131 42.517 41.701
28.000 -16.991 -0.055 -17.106 -0.042 -17.375 -0.070 -17.529 -0.035 -17.589 -0.027 -17.665 -0.025 -17.788 -0.033 -17.792 -0.042 -17.805 -0.153 5.397 0.141 2.318 0.136 42.511 41.707
29.000 -16.960 -0.060 -17.074 -0.046 -17.345 -0.074 -17.511 -0.038 -17.573 -0.030 -17.652 -0.027 -17.778 -0.034 -17.779 -0.041 -17.749 -0.142 5.362 0.147 2.333 0.144 42.506 41.724
30.000 -16.930 -0.064 -17.043 -0.051 -17.314 -0.079 -17.495 -0.041 -17.559 -0.032 -17.640 -0.029 -17.769 -0.035 -17.766 -0.040 -17.694 -0.134 5.335 0.160 2.341 0.157 42.500 41.755
31.000 -16.902 -0.069 -17.013 -0.056 -17.284 -0.085 -17.478 -0.045 -17.547 -0.035 -17.630 -0.031 -17.762 -0.036 -17.755 -0.040 -17.642 -0.129 5.316 0.177 2.344 0.175 42.495 41.796
32.000 -16.873 -0.074 -16.984 -0.061 -17.255 -0.090 -17.463 -0.048 -17.535 -0.038 -17.621 -0.033 -17.756 -0.037 -17.744 -0.040 -17.592 -0.127 5.299 0.198 2.345 0.196 42.490 41.840
33.000 -16.845 -0.079 -16.955 -0.066 -17.224 -0.096 -17.448 -0.053 -17.524 -0.041 -17.614 -0.035 -17.751 -0.038 -17.735 -0.041 -17.544 -0.129 5.279 0.220 2.350 0.218 42.485 41.882
34.000 -16.818 -0.084 -16.925 -0.071 -17.194 -0.102 -17.434 -0.057 -17.513 -0.044 -17.607 -0.036 -17.748 -0.039 -17.728 -0.041 -17.499 -0.135 5.257 0.240 2.359 0.241 42.481 41.919
35.000 -16.790 -0.089 -16.896 -0.075 -17.163 -0.109 -17.420 -0.061 -17.503 -0.047 -17.600 -0.038 -17.746 -0.040 -17.721 -0.042 -17.457 -0.144 5.226 0.258 2.378 0.263 42.478 41.950
36.000 -16.762 -0.094 -16.866 -0.080 -17.132 -0.115 -17.406 -0.065 -17.494 -0.050 -17.595 -0.040 -17.745 -0.041 -17.715 -0.042 -17.418 -0.155 5.186 0.273 2.408 0.285 42.475 41.976
37.000 -16.733 -0.099 -16.836 -0.085 -17.099 -0.121 -17.392 -0.069 -17.484 -0.053 -17.590 -0.042 -17.744 -0.042 -17.710 -0.043 -17.382 -0.167 5.139 0.285 2.447 0.306 42.474 41.998
38.000 -16.704 -0.104 -16.804 -0.089 -17.066 -0.127 -17.377 -0.073 -17.475 -0.055 -17.584 -0.043 -17.743 -0.043 -17.706 -0.043 -17.350 -0.181 5.086 0.294 2.494 0.328 42.472 42.016
39.000 -16.674 -0.108 -16.772 -0.093 -17.031 -0.133 -17.362 -0.077 -17.465 -0.058 -17.579 -0.045 -17.743 -0.044 -17.702 -0.043 -17.321 -0.195 5.031 0.300 2.547 0.349 42.471 42.032
40.000 -16.642 -0.112 -16.738 -0.096 -16.995 -0.139 -17.347 -0.080 -17.455 -0.060 -17.574 -0.046 -17.743 -0.044 -17.699 -0.043 -17.296 -0.209 4.972 0.305 2.605 0.370 42.471 42.045
41.000 -16.610 -0.116 -16.703 -0.099 -16.957 -0.144 -17.330 -0.084 -17.444 -0.062 -17.569 -0.047 -17.743 -0.045 -17.696 -0.043 -17.274 -0.223 4.912 0.308 2.668 0.391 42.470 42.056
42.000 -16.575 -0.119 -16.667 -0.102 -16.918 -0.149 -17.313 -0.087 -17.433 -0.064 -17.563 -0.048 -17.743 -0.045 -17.693 -0.042 -17.255 -0.236 4.852 0.310 2.734 0.411 42.470 42.066
43.000 -16.540 -0.123 -16.629 -0.105 -16.878 -0.154 -17.295 -0.090 -17.421 -0.066 -17.556 -0.048 -17.742 -0.046 -17.691 -0.041 -17.239 -0.249 4.791 0.311 2.803 0.431 42.470 42.074
44.000 -16.502 -0.126 -16.589 -0.107 -16.835 -0.159 -17.277 -0.093 -17.409 -0.068 -17.549 -0.049 -17.741 -0.047 -17.687 -0.040 -17.227 -0.260 4.730 0.310 2.874 0.452 42.469 42.082
45.000 -16.463 -0.130 -16.547 -0.109 -16.791 -0.163 -17.257 -0.095 -17.395 -0.069 -17.542 -0.050 -17.740 -0.047 -17.684 -0.039 -17.217 -0.270 4.670 0.310 2.947 0.472 42.469 42.088
46.000 -16.422 -0.134 -16.504 -0.112 -16.746 -0.167 -17.236 -0.098 -17.381 -0.070 -17.533 -0.050 -17.737 -0.048 -17.680 -0.038 -17.210 -0.280 4.611 0.309 3.020 0.492 42.468 42.093
47.000 -16.380 -0.138 -16.459 -0.115 -16.699 -0.171 -17.215 -0.100 -17.366 -0.071 -17.524 -0.050 -17.734 -0.049 -17.675 -0.037 -17.205 -0.288 4.554 0.308 3.094 0.513 42.468 42.099
48.000 -16.335 -0.144 -16.412 -0.119 -16.650 -0.175 -17.192 -0.102 -17.350 -0.072 -17.514 -0.051 -17.730 -0.050 -17.669 -0.037 -17.203 -0.294 4.498 0.308 3.169 0.536 42.467 42.105
49.000 -16.288 -0.151 -16.363 -0.124 -16.600 -0.179 -17.169 -0.103 -17.334 -0.073 -17.503 -0.051 -17.726 -0.052 -17.662 -0.036 -17.203 -0.299 4.443 0.309 3.244 0.562 42.466 42.114
50.000 -16.240 -0.159 -16.313 -0.131 -16.548 -0.183 -17.145 -0.105 -17.316 -0.074 -17.492 -0.052 -17.720 -0.054 -17.654 -0.037 -17.205 -0.303 4.389 0.311 3.320 0.593 42.465 42.124
51.000 -16.190 -0.170 -16.261 -0.140 -16.495 -0.188 -17.120 -0.107 -17.299 -0.075 -17.480 -0.052 -17.713 -0.056 -17.645 -0.038 -17.208 -0.306 4.338 0.316 3.396 0.629 42.464 42.137
52.000 -16.139 -0.183 -16.207 -0.151 -16.442 -0.193 -17.095 -0.108 -17.280 -0.075 -17.467 -0.053 -17.706 -0.058 -17.634 -0.039 -17.212 -0.307 4.288 0.322 3.471 0.671 42.463 42.153
53.000 -16.085 -0.199 -16.152 -0.165 -16.387 -0.199 -17.070 -0.110 -17.262 -0.076 -17.454 -0.054 -17.698 -0.061 -17.622 -0.042 -17.217 -0.306 4.241 0.331 3.544 0.719 42.462 42.171
54.000 -16.031 -0.217 -16.096 -0.182 -16.332 -0.206 -17.045 -0.111 -17.243 -0.077 -17.440 -0.056 -17.689 -0.064 -17.608 -0.045 -17.222 -0.304 4.198 0.340 3.611 0.771 42.460 42.189
55.000 -15.975 -0.238 -16.038 -0.201 -16.276 -0.215 -17.019 -0.113 -17.224 -0.078 -17.426 -0.057 -17.680 -0.067 -17.592 -0.049 -17.228 -0.301 4.159 0.351 3.670 0.826 42.458 42.208
56.000 -15.918 -0.263 -15.980 -0.224 -16.221 -0.225 -16.994 -0.115 -17.205 -0.079 -17.412 -0.059 -17.669 -0.071 -17.574 -0.053 -17.234 -0.297 4.125 0.364 3.717 0.881 42.455 42.226
57.000 -15.861 -0.290 -15.921 -0.250 -16.165 -0.237 -16.970 -0.117 -17.186 -0.081 -17.399 -0.061 -17.659 -0.074 -17.555 -0.057 -17.239 -0.292 4.099 0.377 3.749 0.934 42.451 42.243
58.000 -15.802 -0.321 -15.862 -0.279 -16.110 -0.252 -16.946 -0.120 -17.168 -0.083 -17.385 -0.064 -17.648 -0.078 -17.534 -0.061 -17.243 -0.285 4.079 0.391 3.761 0.982 42.446 42.257
59.000 -15.743 -0.355 -15.803 -0.311 -16.055 -0.268 -16.923 -0.123 -17.151 -0.085 -17.372 -0.066 -17.637 -0.082 -17.510 -0.066 -17.247 -0.277 4.070 0.406 3.747 1.022 42.439 42.269
60.000 -15.684 -0.391 -15.743 -0.346 -16.001 -0.288 -16.901 -0.127 -17.135 -0.088 -17.359 -0.069 -17.625 -0.085 -17.485 -0.070 -17.249 -0.268 4.074 0.424 3.700 1.050 42.429 42.277
61.000 -15.625 -0.431 -15.684 -0.384 -15.949 -0.310 -16.880 -0.131 -17.119 -0.091 -17.347 -0.072 -17.614 -0.089 -17.458 -0.074 -17.249 -0.258 4.088 0.443 3.628 1.067 42.418 42.282
62.000 -15.566 -0.475 -15.625 -0.424 -15.897 -0.334 -16.862 -0.136 -17.105 -0.095 -17.336 -0.075 -17.603 -0.092 -17.429 -0.077 -17.248 -0.247 4.114 0.464 3.531 1.072 42.405 42.284
63.000 -15.508 -0.521 -15.567 -0.468 -15.848 -0.362 -16.845 -0.143 -17.093 -0.099 -17.326 -0.078 -17.592 -0.095 -17.398 -0.080 -17.244 -0.235 4.151 0.487 3.410 1.066 42.391 42.284
64.000 -15.450 -0.570 -15.510 -0.515 -15.800 -0.392 -16.830 -0.150 -17.082 -0.104 -17.317 -0.081 -17.582 -0.098 -17.365 -0.083 -17.237 -0.222 4.200 0.513 3.270 1.048 42.375 42.281
65.000 -15.393 -0.622 -15.454 -0.565 -15.754 -0.425 -16.817 -0.159 -17.073 -0.110 -17.310 -0.085 -17.572 -0.100 -17.331 -0.085 -17.228 -0.209 4.262 0.543 3.112 1.020 42.357 42.276
66.000 -15.336 -0.677 -15.399 -0.617 -15.711 -0.460 -16.806 -0.169 -17.066 -0.117 -17.304 -0.089 -17.563 -0.103 -17.294 -0.086 -17.216 -0.194 4.336 0.576 2.942 0.983 42.338 42.270
67.000 -15.282 -0.736 -15.346 -0.673 -15.671 -0.499 -16.799 -0.181 -17.061 -0.125 -17.300 -0.094 -17.555 -0.105 -17.256 -0.087 -17.200 -0.180 4.422 0.613 2.764 0.939 42.318 42.261
68.000 -15.228 -0.797 -15.294 -0.731 -15.633 -0.540 -16.793 -0.194 -17.059 -0.135 -17.298 -0.100 -17.547 -0.107 -17.216 -0.087 -17.181 -0.165 4.519 0.653 2.584 0.889 42.298 42.251
69.000 -15.176 -0.860 -15.245 -0.792 -15.598 -0.584 -16.791 -0.209 -17.059 -0.146 -17.298 -0.107 -17.540 -0.110 -17.175 -0.088 -17.157 -0.151 4.623 0.697 2.409 0.838 42.276 42.240
70.000 -15.126 -0.927 -15.197 -0.856 -15.566 -0.630 -16.791 -0.226 -17.061 -0.159 -17.299 -0.116 -17.535 -0.113 -17.132 -0.088 -17.131 -0.137 4.731 0.744 2.244 0.786 42.254 42.228
71.000 -15.078 -0.996 -15.152 -0.922 -15.537 -0.680 -16.794 -0.245 -17.066 -0.174 -17.302 -0.127 -17.530 -0.118 -17.087 -0.090 -17.099 -0.126 4.828 0.789 2.102 0.741 42.233 42.216
72.000 -15.032 -1.069 -15.109 -0.991 -15.511 -0.732 -16.801 -0.267 -17.073 -0.191 -17.308 -0.140 -17.527 -0.125 -17.041 -0.093 -17.064 -0.118 4.908 0.833 1.986 0.707 42.213 42.205
73.000 -14.987 -1.143 -15.068 -1.063 -15.489 -0.786 -16.810 -0.291 -17.083 -0.211 -17.315 -0.155 -17.525 -0.134 -16.993 -0.098 -17.024 -0.117 4.960 0.875 1.901 0.690 42.193 42.198
74.000 -14.945 -1.220 -15.030 -1.137 -15.470 -0.843 -16.822 -0.317 -17.095 -0.233 -17.325 -0.173 -17.523 -0.145 -16.944 -0.107 -16.980 -0.122 4.981 0.916 1.844 0.691 42.174 42.195
75.000 -14.905 -1.300 -14.994 -1.213 -15.454 -0.903 -16.836 -0.346 -17.110 -0.258 -17.336 -0.195 -17.523 -0.160 -16.893 -0.119 -16.931 -0.136 4.976 0.957 1.808 0.709 42.155 42.196
76.000 -14.868 -1.382 -14.961 -1.292 -15.442 -0.966 -16.854 -0.379 -17.127 -0.286 -17.349 -0.219 -17.524 -0.179 -16.841 -0.136 -16.877 -0.157 4.957 0.996 1.783 0.735 42.136 42.197
77.000 -14.832 -1.466 -14.930 -1.373 -15.432 -1.030 -16.874 -0.414 -17.146 -0.318 -17.364 -0.247 -17.525 -0.201 -16.788 -0.156 -16.819 -0.184 4.934 1.035 1.760 0.764 42.117 42.198
