"Time (MJD)" PAN-STARRS/PS1.g PAN-STARRS/PS1.g_err PAN-STARRS/PS1.i PAN-STARRS/PS1.i_err PAN-STARRS/PS1.r PAN-STARRS/PS1.r_err PAN-STARRS/PS1.z PAN-STARRS/PS1.z_err Palomar/ZTF.g Palomar/ZTF.g_err Palomar/ZTF.r Palomar/ZTF.r_err Swift/UVOT.B_fil Swift/UVOT.B_fil_err Swift/UVOT.UVM2_fil Swift/UVOT.UVM2_fil_err Swift/UVOT.UVW1_fil Swift/UVOT.UVW1_fil_err Swift/UVOT.UVW2_fil Swift/UVOT.UVW2_fil_err Swift/UVOT.U_fil Swift/UVOT.U_fil_err Swift/UVOT.V_fil Swift/UVOT.V_fil_err "Temp./1e3 (K)" "Temp. Err." "Radius/1e15 (cm)" "Radius Err." "Log10(Bol. Lum)" "Log10(Bol. Err)"
-31.000 -16.391 -0.996 -17.075 -0.966 -19.946 -1.122 -19.065 -1.261 -19.567 -0.634 -18.708 -0.033 -18.522 -0.053 -14.362 -1.082 -17.471 -0.067 -18.271 -0.040 -18.189 -0.117 -17.355 -1.473 12.544 12.516 0.648 0.771 42.869 43.536
-30.000 -16.643 -0.902 -17.282 -0.874 -19.966 -1.022 -19.122 -1.154 -19.638 -0.588 -18.821 -0.025 -18.661 -0.039 -14.834 -1.012 -17.764 -0.052 -18.393 -0.032 -18.265 -0.086 -17.454 -1.349 16.865 9.778 0.577 0.339 43.283 43.698
-29.000 -16.887 -0.813 -17.481 -0.787 -19.976 -0.926 -19.171 -1.051 -19.698 -0.543 -18.914 -0.023 -18.778 -0.028 -15.281 -0.943 -18.029 -0.040 -18.498 -0.029 -18.331 -0.061 -17.546 -1.229 16.860 7.174 0.648 0.280 43.384 43.665
-28.000 -17.121 -0.729 -17.671 -0.704 -19.977 -0.835 -19.214 -0.952 -19.745 -0.500 -18.989 -0.024 -18.875 -0.019 -15.704 -0.876 -18.266 -0.029 -18.587 -0.029 -18.388 -0.042 -17.632 -1.112 16.723 5.285 0.703 0.225 43.440 43.591
-27.000 -17.345 -0.650 -17.850 -0.626 -19.968 -0.748 -19.251 -0.859 -19.782 -0.459 -19.046 -0.026 -18.952 -0.015 -16.101 -0.812 -18.475 -0.021 -18.661 -0.030 -18.436 -0.031 -17.711 -1.000 16.498 3.704 0.752 0.172 43.475 43.478
-26.000 -17.558 -0.576 -18.019 -0.554 -19.951 -0.667 -19.283 -0.769 -19.809 -0.420 -19.086 -0.028 -19.011 -0.014 -16.473 -0.750 -18.657 -0.017 -18.721 -0.031 -18.476 -0.028 -17.783 -0.893 15.834 2.470 0.818 0.132 43.476 43.323
-25.000 -17.759 -0.508 -18.176 -0.487 -19.926 -0.591 -19.308 -0.685 -19.827 -0.383 -19.111 -0.030 -19.052 -0.015 -16.820 -0.690 -18.811 -0.017 -18.766 -0.032 -18.508 -0.032 -17.849 -0.791 14.762 1.763 0.912 0.118 43.449 43.184
-24.000 -17.947 -0.444 -18.323 -0.425 -19.894 -0.520 -19.329 -0.607 -19.837 -0.347 -19.122 -0.031 -19.078 -0.017 -17.140 -0.633 -18.938 -0.020 -18.798 -0.032 -18.532 -0.037 -17.909 -0.695 13.976 1.558 0.992 0.124 43.428 43.136
-23.000 -18.122 -0.386 -18.457 -0.368 -19.856 -0.454 -19.345 -0.533 -19.840 -0.314 -19.121 -0.031 -19.089 -0.020 -17.436 -0.578 -19.039 -0.025 -18.819 -0.032 -18.549 -0.041 -17.962 -0.604 13.626 1.547 1.033 0.135 43.419 43.138
-22.000 -18.284 -0.332 -18.580 -0.316 -19.812 -0.393 -19.357 -0.465 -19.837 -0.282 -19.108 -0.031 -19.086 -0.021 -17.707 -0.526 -19.115 -0.029 -18.829 -0.031 -18.559 -0.043 -18.009 -0.519 13.538 1.557 1.043 0.139 43.416 43.141
-21.000 -18.432 -0.284 -18.690 -0.269 -19.764 -0.338 -19.365 -0.402 -19.830 -0.253 -19.085 -0.031 -19.072 -0.022 -17.953 -0.476 -19.166 -0.033 -18.829 -0.030 -18.563 -0.044 -18.050 -0.441 13.582 1.550 1.034 0.137 43.414 43.137
-20.000 -18.567 -0.241 -18.789 -0.227 -19.712 -0.287 -19.368 -0.345 -19.818 -0.225 -19.054 -0.030 -19.048 -0.023 -18.177 -0.430 -19.195 -0.037 -18.820 -0.029 -18.562 -0.044 -18.085 -0.369 13.705 1.531 1.015 0.131 43.413 43.126
-19.000 -18.687 -0.202 -18.875 -0.189 -19.656 -0.242 -19.369 -0.293 -19.804 -0.199 -19.015 -0.030 -19.014 -0.024 -18.378 -0.386 -19.202 -0.040 -18.804 -0.029 -18.556 -0.042 -18.115 -0.304 13.904 1.517 0.986 0.123 43.413 43.114
-18.000 -18.793 -0.168 -18.950 -0.156 -19.599 -0.202 -19.367 -0.247 -19.787 -0.176 -18.971 -0.029 -18.973 -0.025 -18.558 -0.345 -19.188 -0.041 -18.782 -0.028 -18.546 -0.040 -18.140 -0.245 14.212 1.522 0.947 0.115 43.416 43.109
-17.000 -18.886 -0.138 -19.014 -0.128 -19.540 -0.167 -19.362 -0.205 -19.768 -0.154 -18.922 -0.029 -18.926 -0.025 -18.717 -0.308 -19.157 -0.042 -18.754 -0.028 -18.532 -0.037 -18.160 -0.193 14.673 1.554 0.899 0.107 43.427 43.113
-16.000 -18.965 -0.112 -19.067 -0.103 -19.480 -0.136 -19.355 -0.169 -19.749 -0.135 -18.870 -0.028 -18.874 -0.026 -18.858 -0.273 -19.108 -0.042 -18.722 -0.028 -18.515 -0.033 -18.175 -0.148 15.311 1.603 0.844 0.097 43.446 43.125
-15.000 -19.031 -0.091 -19.109 -0.083 -19.420 -0.110 -19.346 -0.138 -19.730 -0.117 -18.816 -0.028 -18.819 -0.026 -18.981 -0.241 -19.044 -0.041 -18.687 -0.028 -18.496 -0.030 -18.186 -0.111 16.093 1.648 0.788 0.087 43.472 43.140
-14.000 -19.085 -0.073 -19.142 -0.066 -19.361 -0.088 -19.335 -0.112 -19.711 -0.102 -18.760 -0.029 -18.761 -0.026 -19.089 -0.212 -18.966 -0.039 -18.649 -0.029 -18.474 -0.028 -18.194 -0.083 16.931 1.675 0.736 0.078 43.501 43.154
-13.000 -19.127 -0.058 -19.165 -0.053 -19.304 -0.070 -19.323 -0.090 -19.693 -0.088 -18.705 -0.029 -18.702 -0.026 -19.181 -0.187 -18.877 -0.036 -18.610 -0.030 -18.451 -0.026 -18.197 -0.064 17.749 1.682 0.691 0.071 43.528 43.163
-12.000 -19.158 -0.047 -19.179 -0.042 -19.249 -0.057 -19.310 -0.074 -19.676 -0.076 -18.650 -0.029 -18.642 -0.027 -19.260 -0.164 -18.778 -0.034 -18.571 -0.031 -18.427 -0.025 -18.198 -0.056 18.540 1.690 0.651 0.065 43.553 43.172
-11.000 -19.179 -0.039 -19.186 -0.035 -19.196 -0.047 -19.295 -0.061 -19.661 -0.066 -18.596 -0.030 -18.583 -0.027 -19.326 -0.144 -18.670 -0.032 -18.531 -0.032 -18.402 -0.025 -18.196 -0.057 19.343 1.727 0.613 0.062 43.574 43.187
-10.000 -19.190 -0.033 -19.185 -0.030 -19.146 -0.040 -19.280 -0.052 -19.647 -0.058 -18.544 -0.030 -18.525 -0.027 -19.382 -0.126 -18.556 -0.033 -18.493 -0.033 -18.378 -0.026 -18.191 -0.061 20.167 1.825 0.575 0.060 43.591 43.213
-9.000 -19.194 -0.029 -19.179 -0.027 -19.099 -0.036 -19.265 -0.046 -19.636 -0.051 -18.494 -0.031 -18.469 -0.027 -19.428 -0.111 -18.436 -0.038 -18.456 -0.035 -18.353 -0.027 -18.183 -0.064 20.977 2.004 0.541 0.061 43.605 43.253
-8.000 -19.189 -0.026 -19.167 -0.025 -19.056 -0.034 -19.248 -0.043 -19.626 -0.046 -18.448 -0.031 -18.415 -0.026 -19.465 -0.099 -18.314 -0.045 -18.420 -0.036 -18.329 -0.028 -18.174 -0.067 21.704 2.247 0.511 0.063 43.616 43.299
-7.000 -19.179 -0.024 -19.150 -0.024 -19.017 -0.032 -19.232 -0.040 -19.618 -0.042 -18.404 -0.032 -18.363 -0.026 -19.495 -0.090 -18.189 -0.055 -18.387 -0.037 -18.306 -0.029 -18.163 -0.067 22.304 2.509 0.487 0.066 43.622 43.342
-6.000 -19.162 -0.023 -19.130 -0.023 -18.982 -0.031 -19.215 -0.038 -19.612 -0.040 -18.363 -0.032 -18.315 -0.026 -19.519 -0.083 -18.064 -0.067 -18.356 -0.038 -18.283 -0.030 -18.151 -0.065 22.767 2.753 0.468 0.068 43.623 43.375
-5.000 -19.142 -0.022 -19.107 -0.022 -18.952 -0.030 -19.198 -0.037 -19.607 -0.039 -18.326 -0.032 -18.270 -0.026 -19.538 -0.078 -17.940 -0.081 -18.328 -0.039 -18.262 -0.031 -18.137 -0.061 23.102 2.959 0.454 0.070 43.621 43.398
-4.000 -19.118 -0.022 -19.082 -0.022 -18.926 -0.029 -19.181 -0.036 -19.604 -0.038 -18.292 -0.033 -18.228 -0.025 -19.552 -0.076 -17.818 -0.096 -18.302 -0.040 -18.242 -0.031 -18.122 -0.056 23.319 3.126 0.443 0.071 43.615 43.412
-3.000 -19.092 -0.022 -19.055 -0.022 -18.904 -0.029 -19.163 -0.035 -19.602 -0.039 -18.261 -0.033 -18.189 -0.025 -19.562 -0.075 -17.699 -0.113 -18.280 -0.041 -18.224 -0.031 -18.106 -0.051 23.433 3.263 0.434 0.072 43.607 43.419
-2.000 -19.064 -0.022 -19.028 -0.023 -18.886 -0.029 -19.146 -0.035 -19.601 -0.040 -18.233 -0.033 -18.153 -0.024 -19.569 -0.076 -17.584 -0.130 -18.260 -0.041 -18.206 -0.031 -18.089 -0.047 23.481 3.392 0.427 0.073 43.596 43.424
-1.000 -19.036 -0.024 -19.001 -0.024 -18.872 -0.030 -19.128 -0.037 -19.601 -0.041 -18.208 -0.033 -18.120 -0.024 -19.574 -0.078 -17.475 -0.147 -18.243 -0.042 -18.190 -0.030 -18.072 -0.047 23.531 3.534 0.420 0.074 43.586 43.428
-0.000 -19.008 -0.025 -18.975 -0.025 -18.862 -0.031 -19.110 -0.039 -19.601 -0.043 -18.185 -0.033 -18.090 -0.023 -19.576 -0.081 -17.371 -0.165 -18.228 -0.042 -18.176 -0.029 -18.055 -0.050 23.623 3.701 0.412 0.074 43.576 43.435
1.000 -18.980 -0.027 -18.950 -0.027 -18.855 -0.033 -19.093 -0.041 -19.601 -0.045 -18.164 -0.033 -18.062 -0.023 -19.577 -0.084 -17.274 -0.183 -18.215 -0.043 -18.163 -0.028 -18.037 -0.056 23.708 3.886 0.405 0.074 43.566 43.442
2.000 -18.955 -0.030 -18.927 -0.029 -18.852 -0.036 -19.075 -0.045 -19.600 -0.047 -18.145 -0.033 -18.036 -0.022 -19.576 -0.087 -17.184 -0.201 -18.205 -0.043 -18.151 -0.026 -18.018 -0.065 23.705 4.074 0.399 0.075 43.555 43.449
3.000 -18.932 -0.032 -18.906 -0.030 -18.851 -0.038 -19.057 -0.048 -19.599 -0.049 -18.127 -0.033 -18.011 -0.021 -19.574 -0.091 -17.102 -0.219 -18.196 -0.043 -18.140 -0.024 -18.000 -0.076 23.576 4.261 0.397 0.077 43.540 43.454
4.000 -18.911 -0.034 -18.887 -0.032 -18.853 -0.041 -19.039 -0.052 -19.598 -0.050 -18.111 -0.033 -17.988 -0.020 -19.571 -0.095 -17.028 -0.236 -18.189 -0.043 -18.130 -0.022 -17.981 -0.087 23.302 4.439 0.398 0.080 43.521 43.457
5.000 -18.894 -0.035 -18.871 -0.033 -18.857 -0.043 -19.021 -0.056 -19.595 -0.052 -18.094 -0.033 -17.966 -0.020 -19.567 -0.098 -16.962 -0.253 -18.183 -0.043 -18.120 -0.020 -17.962 -0.099 22.981 4.631 0.400 0.084 43.502 43.461
6.000 -18.880 -0.037 -18.859 -0.034 -18.863 -0.045 -19.002 -0.059 -19.591 -0.053 -18.078 -0.033 -17.945 -0.019 -19.562 -0.101 -16.904 -0.269 -18.178 -0.042 -18.112 -0.018 -17.943 -0.110 22.510 4.781 0.406 0.089 43.479 43.459
7.000 -18.870 -0.037 -18.849 -0.035 -18.870 -0.046 -18.984 -0.061 -19.585 -0.053 -18.063 -0.033 -17.923 -0.019 -19.556 -0.103 -16.854 -0.285 -18.174 -0.042 -18.104 -0.017 -17.924 -0.120 21.977 4.886 0.414 0.094 43.454 43.454
8.000 -18.864 -0.038 -18.842 -0.036 -18.878 -0.047 -18.966 -0.063 -19.578 -0.053 -18.046 -0.033 -17.902 -0.019 -19.549 -0.105 -16.813 -0.299 -18.169 -0.042 -18.096 -0.016 -17.905 -0.130 21.532 4.958 0.421 0.099 43.433 43.447
9.000 -18.861 -0.038 -18.839 -0.035 -18.887 -0.048 -18.947 -0.064 -19.570 -0.053 -18.029 -0.032 -17.880 -0.019 -19.540 -0.106 -16.780 -0.313 -18.165 -0.041 -18.088 -0.016 -17.885 -0.139 21.373 5.029 0.422 0.101 43.422 43.446
10.000 -18.862 -0.038 -18.839 -0.035 -18.897 -0.048 -18.929 -0.065 -19.560 -0.052 -18.012 -0.032 -17.858 -0.020 -19.531 -0.107 -16.755 -0.325 -18.160 -0.041 -18.080 -0.016 -17.866 -0.146 21.782 5.182 0.411 0.100 43.434 43.462
11.000 -18.867 -0.037 -18.841 -0.034 -18.906 -0.047 -18.911 -0.065 -19.548 -0.051 -17.993 -0.032 -17.835 -0.021 -19.520 -0.106 -16.737 -0.335 -18.155 -0.040 -18.072 -0.017 -17.847 -0.153 22.715 5.424 0.392 0.095 43.465 43.494
12.000 -18.875 -0.036 -18.846 -0.033 -18.915 -0.046 -18.893 -0.064 -19.535 -0.050 -17.973 -0.032 -17.810 -0.022 -19.508 -0.106 -16.727 -0.345 -18.149 -0.040 -18.063 -0.019 -17.828 -0.159 23.879 5.694 0.371 0.089 43.503 43.532
13.000 -18.887 -0.035 -18.854 -0.032 -18.923 -0.045 -18.875 -0.063 -19.520 -0.048 -17.952 -0.033 -17.785 -0.024 -19.494 -0.104 -16.724 -0.353 -18.142 -0.040 -18.054 -0.021 -17.809 -0.164 25.112 5.982 0.351 0.085 43.543 43.571
14.000 -18.901 -0.033 -18.864 -0.031 -18.931 -0.043 -18.857 -0.061 -19.505 -0.046 -17.929 -0.033 -17.758 -0.026 -19.479 -0.102 -16.728 -0.359 -18.134 -0.040 -18.045 -0.024 -17.790 -0.168 26.317 6.287 0.334 0.081 43.581 43.611
15.000 -18.917 -0.031 -18.875 -0.029 -18.938 -0.041 -18.840 -0.059 -19.488 -0.044 -17.906 -0.034 -17.730 -0.029 -19.462 -0.100 -16.738 -0.364 -18.124 -0.040 -18.034 -0.027 -17.771 -0.172 27.464 6.624 0.320 0.079 43.617 43.652
16.000 -18.935 -0.030 -18.888 -0.027 -18.943 -0.038 -18.824 -0.056 -19.470 -0.041 -17.881 -0.035 -17.701 -0.031 -19.443 -0.097 -16.754 -0.367 -18.114 -0.040 -18.023 -0.029 -17.752 -0.176 28.555 7.005 0.308 0.077 43.652 43.694
17.000 -18.955 -0.028 -18.903 -0.026 -18.948 -0.036 -18.808 -0.054 -19.452 -0.039 -17.855 -0.036 -17.670 -0.034 -19.423 -0.094 -16.775 -0.368 -18.102 -0.041 -18.011 -0.032 -17.734 -0.179 29.604 7.441 0.297 0.077 43.685 43.738
18.000 -18.976 -0.026 -18.918 -0.024 -18.952 -0.034 -18.793 -0.051 -19.434 -0.037 -17.828 -0.037 -17.638 -0.036 -19.401 -0.091 -16.801 -0.368 -18.088 -0.041 -17.998 -0.035 -17.716 -0.182 30.634 7.939 0.288 0.076 43.716 43.783
19.000 -18.997 -0.024 -18.933 -0.023 -18.954 -0.032 -18.779 -0.049 -19.415 -0.035 -17.800 -0.038 -17.605 -0.038 -19.378 -0.089 -16.831 -0.366 -18.074 -0.042 -17.984 -0.037 -17.698 -0.185 31.683 8.511 0.279 0.077 43.748 43.830
20.000 -19.019 -0.023 -18.949 -0.022 -18.955 -0.030 -18.766 -0.047 -19.397 -0.034 -17.771 -0.039 -17.571 -0.041 -19.353 -0.086 -16.865 -0.362 -18.058 -0.042 -17.969 -0.039 -17.681 -0.188 32.819 9.183 0.270 0.077 43.781 43.880
21.000 -19.040 -0.022 -18.964 -0.021 -18.956 -0.029 -18.754 -0.046 -19.379 -0.033 -17.742 -0.041 -17.536 -0.043 -19.327 -0.085 -16.901 -0.357 -18.041 -0.043 -17.952 -0.041 -17.665 -0.190 34.127 10.006 0.261 0.076 43.818 43.935
22.000 -19.060 -0.021 -18.979 -0.021 -18.955 -0.029 -18.743 -0.045 -19.362 -0.034 -17.712 -0.042 -17.500 -0.045 -19.300 -0.084 -16.941 -0.350 -18.023 -0.043 -17.935 -0.043 -17.649 -0.193 35.705 11.059 0.250 0.076 43.859 43.999
23.000 -19.079 -0.021 -18.993 -0.021 -18.954 -0.029 -18.734 -0.045 -19.346 -0.034 -17.683 -0.043 -17.464 -0.046 -19.272 -0.084 -16.983 -0.342 -18.003 -0.044 -17.917 -0.044 -17.635 -0.196 37.642 12.441 0.238 0.075 43.908 44.074
24.000 -19.097 -0.021 -19.006 -0.021 -18.952 -0.029 -18.726 -0.045 -19.332 -0.036 -17.653 -0.043 -17.427 -0.047 -19.243 -0.085 -17.026 -0.332 -17.983 -0.044 -17.899 -0.045 -17.621 -0.198 39.999 14.263 0.225 0.074 43.964 44.160
25.000 -19.113 -0.021 -19.018 -0.021 -18.950 -0.030 -18.719 -0.045 -19.318 -0.037 -17.624 -0.044 -17.391 -0.048 -19.213 -0.087 -17.070 -0.321 -17.963 -0.044 -17.879 -0.045 -17.608 -0.200 40.000 14.175 0.224 0.073 43.962 44.155
26.000 -19.126 -0.022 -19.029 -0.021 -18.948 -0.030 -18.714 -0.046 -19.307 -0.039 -17.595 -0.044 -17.354 -0.049 -19.184 -0.089 -17.115 -0.309 -17.941 -0.044 -17.858 -0.045 -17.596 -0.201 40.000 14.193 0.223 0.073 43.959 44.153
27.000 -19.138 -0.022 -19.038 -0.022 -18.946 -0.031 -18.711 -0.047 -19.297 -0.041 -17.567 -0.045 -17.317 -0.049 -19.154 -0.093 -17.160 -0.295 -17.920 -0.044 -17.837 -0.045 -17.586 -0.201 40.000 14.327 0.222 0.072 43.955 44.152
28.000 -19.147 -0.023 -19.045 -0.022 -18.944 -0.032 -18.708 -0.048 -19.288 -0.043 -17.539 -0.045 -17.281 -0.049 -19.125 -0.096 -17.205 -0.281 -17.898 -0.045 -17.816 -0.044 -17.576 -0.200 40.000 14.568 0.221 0.072 43.950 44.153
29.000 -19.154 -0.023 -19.051 -0.023 -18.943 -0.032 -18.708 -0.048 -19.282 -0.045 -17.512 -0.045 -17.246 -0.049 -19.096 -0.100 -17.249 -0.265 -17.875 -0.044 -17.794 -0.043 -17.568 -0.198 40.000 14.903 0.219 0.073 43.944 44.156
30.000 -19.159 -0.024 -19.056 -0.023 -18.942 -0.032 -18.709 -0.049 -19.278 -0.047 -17.486 -0.045 -17.210 -0.049 -19.069 -0.105 -17.291 -0.249 -17.853 -0.044 -17.771 -0.042 -17.561 -0.195 40.000 15.311 0.218 0.074 43.937 44.160
31.000 -19.161 -0.024 -19.059 -0.024 -18.942 -0.032 -18.711 -0.050 -19.275 -0.048 -17.462 -0.044 -17.176 -0.049 -19.042 -0.109 -17.331 -0.233 -17.831 -0.044 -17.748 -0.041 -17.556 -0.190 40.000 15.772 0.216 0.075 43.929 44.165
32.000 -19.161 -0.025 -19.060 -0.024 -18.944 -0.032 -18.715 -0.051 -19.274 -0.050 -17.438 -0.044 -17.142 -0.048 -19.016 -0.113 -17.370 -0.216 -17.809 -0.044 -17.725 -0.039 -17.551 -0.184 40.000 16.264 0.214 0.076 43.922 44.170
33.000 -19.159 -0.025 -19.060 -0.024 -18.946 -0.032 -18.720 -0.052 -19.275 -0.051 -17.415 -0.044 -17.109 -0.048 -18.992 -0.117 -17.405 -0.199 -17.787 -0.044 -17.702 -0.038 -17.548 -0.177 40.000 16.771 0.212 0.077 43.914 44.176
34.000 -19.155 -0.025 -19.059 -0.025 -18.949 -0.031 -18.725 -0.053 -19.277 -0.052 -17.393 -0.044 -17.077 -0.048 -18.969 -0.120 -17.438 -0.182 -17.765 -0.045 -17.679 -0.036 -17.545 -0.169 40.000 17.274 0.210 0.078 43.907 44.181
35.000 -19.149 -0.026 -19.057 -0.025 -18.954 -0.031 -18.732 -0.055 -19.280 -0.053 -17.372 -0.044 -17.046 -0.049 -18.948 -0.123 -17.468 -0.165 -17.743 -0.045 -17.656 -0.035 -17.543 -0.159 40.000 17.761 0.209 0.079 43.901 44.187
36.000 -19.143 -0.026 -19.054 -0.025 -18.960 -0.031 -18.739 -0.056 -19.284 -0.054 -17.352 -0.045 -17.015 -0.049 -18.929 -0.125 -17.494 -0.148 -17.721 -0.045 -17.633 -0.034 -17.543 -0.148 40.000 18.220 0.207 0.080 43.895 44.192
37.000 -19.135 -0.027 -19.050 -0.026 -18.967 -0.031 -18.746 -0.058 -19.289 -0.055 -17.332 -0.046 -16.985 -0.050 -18.912 -0.126 -17.517 -0.131 -17.700 -0.045 -17.610 -0.033 -17.542 -0.137 40.000 18.643 0.206 0.081 43.890 44.196
38.000 -19.127 -0.028 -19.046 -0.026 -18.975 -0.032 -18.754 -0.060 -19.294 -0.056 -17.313 -0.047 -16.955 -0.052 -18.897 -0.127 -17.535 -0.116 -17.679 -0.046 -17.588 -0.033 -17.542 -0.124 40.000 19.019 0.205 0.082 43.886 44.201
39.000 -19.118 -0.028 -19.042 -0.027 -18.984 -0.033 -18.761 -0.062 -19.300 -0.056 -17.295 -0.049 -16.926 -0.054 -18.884 -0.127 -17.549 -0.100 -17.658 -0.046 -17.565 -0.033 -17.541 -0.112 40.000 19.332 0.205 0.083 43.883 44.205
40.000 -19.110 -0.029 -19.038 -0.028 -18.994 -0.034 -18.768 -0.064 -19.305 -0.056 -17.277 -0.051 -16.897 -0.056 -18.872 -0.127 -17.559 -0.086 -17.637 -0.047 -17.543 -0.033 -17.541 -0.099 40.000 19.561 0.204 0.084 43.881 44.208
41.000 -19.102 -0.030 -19.033 -0.029 -19.004 -0.035 -18.774 -0.065 -19.309 -0.056 -17.258 -0.054 -16.869 -0.059 -18.863 -0.126 -17.564 -0.073 -17.616 -0.047 -17.522 -0.033 -17.539 -0.087 40.000 19.678 0.204 0.084 43.881 44.210
42.000 -19.094 -0.031 -19.029 -0.029 -19.015 -0.036 -18.779 -0.066 -19.313 -0.056 -17.240 -0.057 -16.841 -0.062 -18.855 -0.125 -17.565 -0.061 -17.595 -0.047 -17.500 -0.033 -17.536 -0.076 40.000 19.642 0.205 0.084 43.883 44.211
43.000 -19.088 -0.031 -19.026 -0.030 -19.025 -0.037 -18.783 -0.066 -19.315 -0.056 -17.221 -0.060 -16.812 -0.066 -18.848 -0.124 -17.561 -0.051 -17.574 -0.047 -17.479 -0.033 -17.532 -0.067 40.000 19.403 0.206 0.083 43.887 44.210
44.000 -19.083 -0.031 -19.023 -0.030 -19.035 -0.037 -18.784 -0.065 -19.315 -0.057 -17.202 -0.063 -16.784 -0.069 -18.843 -0.123 -17.553 -0.042 -17.553 -0.047 -17.458 -0.033 -17.526 -0.061 40.000 18.918 0.207 0.081 43.893 44.204
45.000 -19.079 -0.030 -19.020 -0.030 -19.045 -0.037 -18.784 -0.063 -19.313 -0.057 -17.182 -0.066 -16.755 -0.073 -18.838 -0.124 -17.540 -0.035 -17.532 -0.047 -17.437 -0.033 -17.518 -0.058 40.000 18.192 0.209 0.078 43.899 44.194
46.000 -19.077 -0.030 -19.018 -0.031 -19.052 -0.037 -18.781 -0.061 -19.308 -0.059 -17.162 -0.070 -16.726 -0.077 -18.835 -0.128 -17.523 -0.030 -17.510 -0.047 -17.415 -0.033 -17.507 -0.059 40.000 17.364 0.210 0.075 43.904 44.178
47.000 -19.077 -0.029 -19.016 -0.031 -19.059 -0.037 -18.775 -0.061 -19.301 -0.062 -17.140 -0.073 -16.697 -0.080 -18.832 -0.134 -17.502 -0.027 -17.488 -0.047 -17.394 -0.033 -17.493 -0.063 40.000 16.741 0.210 0.072 43.906 44.163
48.000 -19.079 -0.030 -19.015 -0.033 -19.062 -0.038 -18.766 -0.062 -19.291 -0.067 -17.117 -0.077 -16.666 -0.084 -18.829 -0.144 -17.476 -0.027 -17.465 -0.046 -17.373 -0.032 -17.475 -0.069 40.000 16.717 0.209 0.071 43.901 44.158
49.000 -19.083 -0.033 -19.014 -0.037 -19.064 -0.042 -18.753 -0.068 -19.277 -0.075 -17.093 -0.080 -16.635 -0.087 -18.826 -0.159 -17.447 -0.029 -17.442 -0.045 -17.351 -0.032 -17.453 -0.077 40.000 17.690 0.206 0.073 43.890 44.169
50.000 -19.088 -0.039 -19.013 -0.045 -19.062 -0.051 -18.737 -0.080 -19.260 -0.086 -17.068 -0.083 -16.604 -0.091 -18.823 -0.179 -17.414 -0.031 -17.419 -0.045 -17.329 -0.032 -17.426 -0.088 40.000 20.012 0.202 0.078 43.871 44.202
51.000 -19.095 -0.050 -19.012 -0.055 -19.056 -0.064 -18.716 -0.099 -19.238 -0.100 -17.041 -0.086 -16.571 -0.093 -18.819 -0.203 -17.378 -0.034 -17.395 -0.044 -17.306 -0.032 -17.394 -0.100 40.000 23.881 0.196 0.088 43.847 44.254
52.000 -19.104 -0.065 -19.011 -0.069 -19.047 -0.081 -18.691 -0.123 -19.213 -0.118 -17.012 -0.088 -16.538 -0.096 -18.814 -0.232 -17.339 -0.038 -17.370 -0.043 -17.282 -0.033 -17.357 -0.115 40.000 29.316 0.191 0.101 43.822 44.316
53.000 -19.113 -0.083 -19.009 -0.088 -19.032 -0.104 -18.661 -0.154 -19.183 -0.140 -16.982 -0.090 -16.504 -0.098 -18.807 -0.266 -17.297 -0.041 -17.345 -0.042 -17.257 -0.034 -17.315 -0.134 35.002 28.904 0.204 0.124 43.648 44.194
54.000 -19.124 -0.106 -19.006 -0.110 -19.013 -0.131 -18.627 -0.191 -19.149 -0.165 -16.951 -0.092 -16.468 -0.100 -18.799 -0.304 -17.253 -0.045 -17.320 -0.042 -17.231 -0.035 -17.266 -0.156 6.305 1.422 1.384 0.575 42.334 42.422
55.000 -19.135 -0.133 -19.003 -0.136 -18.988 -0.163 -18.587 -0.233 -19.111 -0.193 -16.918 -0.094 -16.432 -0.101 -18.789 -0.346 -17.207 -0.049 -17.294 -0.041 -17.203 -0.038 -17.211 -0.182 6.225 1.192 1.396 0.500 42.319 42.340
56.000 -19.146 -0.164 -18.997 -0.166 -18.957 -0.200 -18.542 -0.281 -19.068 -0.226 -16.883 -0.095 -16.395 -0.101 -18.777 -0.393 -17.160 -0.053 -17.269 -0.040 -17.174 -0.040 -17.149 -0.214 6.131 1.013 1.415 0.445 42.304 42.265
57.000 -19.157 -0.200 -18.990 -0.201 -18.920 -0.242 -18.491 -0.334 -19.021 -0.262 -16.846 -0.096 -16.357 -0.101 -18.762 -0.443 -17.111 -0.058 -17.243 -0.040 -17.142 -0.042 -17.080 -0.251 6.036 0.876 1.436 0.404 42.290 42.198
58.000 -19.167 -0.241 -18.980 -0.240 -18.877 -0.289 -18.435 -0.393 -18.969 -0.302 -16.808 -0.098 -16.318 -0.100 -18.744 -0.497 -17.062 -0.062 -17.217 -0.040 -17.109 -0.045 -17.004 -0.294 5.947 0.772 1.455 0.373 42.276 42.139
59.000 -19.176 -0.286 -18.967 -0.284 -18.826 -0.341 -18.373 -0.458 -18.912 -0.345 -16.769 -0.100 -16.278 -0.098 -18.723 -0.555 -17.013 -0.067 -17.191 -0.040 -17.074 -0.048 -16.920 -0.343 5.863 0.694 1.473 0.350 42.261 42.088
60.000 -19.182 -0.336 -18.951 -0.333 -18.769 -0.399 -18.305 -0.528 -18.852 -0.392 -16.728 -0.103 -16.238 -0.096 -18.699 -0.617 -16.965 -0.071 -17.165 -0.042 -17.035 -0.050 -16.830 -0.398 5.783 0.636 1.486 0.333 42.245 42.044
61.000 -19.187 -0.391 -18.931 -0.387 -18.704 -0.462 -18.232 -0.604 -18.786 -0.444 -16.685 -0.108 -16.197 -0.094 -18.671 -0.682 -16.917 -0.076 -17.140 -0.045 -16.995 -0.052 -16.732 -0.459 5.709 0.592 1.494 0.321 42.228 42.004
62.000 -19.187 -0.451 -18.907 -0.446 -18.631 -0.530 -18.152 -0.685 -18.717 -0.499 -16.642 -0.115 -16.155 -0.094 -18.640 -0.750 -16.870 -0.081 -17.115 -0.050 -16.951 -0.055 -16.627 -0.526 5.618 0.554 1.508 0.314 42.208 41.966
63.000 -19.185 -0.517 -18.878 -0.511 -18.551 -0.603 -18.067 -0.772 -18.643 -0.557 -16.597 -0.126 -16.112 -0.095 -18.605 -0.821 -16.824 -0.086 -17.091 -0.058 -16.904 -0.059 -16.515 -0.599 5.582 0.532 1.490 0.303 42.186 41.932
64.000 -19.177 -0.587 -18.844 -0.580 -18.464 -0.682 -17.977 -0.863 -18.565 -0.620 -16.551 -0.140 -16.069 -0.099 -18.566 -0.896 -16.781 -0.093 -17.068 -0.068 -16.854 -0.064 -16.395 -0.678 5.571 0.523 1.457 0.293 42.163 41.904
65.000 -19.165 -0.663 -18.805 -0.655 -18.368 -0.766 -17.880 -0.960 -18.484 -0.686 -16.503 -0.159 -16.025 -0.108 -18.523 -0.973 -16.739 -0.100 -17.045 -0.082 -16.800 -0.072 -16.269 -0.763 5.589 0.529 1.410 0.286 42.140 41.885
66.000 -19.148 -0.744 -18.759 -0.735 -18.266 -0.855 -17.779 -1.061 -18.399 -0.756 -16.455 -0.182 -15.981 -0.123 -18.476 -1.053 -16.700 -0.108 -17.023 -0.099 -16.743 -0.083 -16.136 -0.853 5.635 0.553 1.352 0.283 42.118 41.877
67.000 -19.124 -0.831 -18.708 -0.820 -18.156 -0.949 -17.672 -1.167 -18.310 -0.830 -16.406 -0.211 -15.936 -0.144 -18.425 -1.135 -16.664 -0.119 -17.003 -0.119 -16.681 -0.097 -15.997 -0.948 5.708 0.595 1.285 0.283 42.097 41.879
68.000 -19.093 -0.922 -18.650 -0.910 -18.038 -1.048 -17.560 -1.277 -18.217 -0.907 -16.355 -0.244 -15.891 -0.170 -18.370 -1.219 -16.631 -0.132 -16.983 -0.142 -16.617 -0.117 -15.852 -1.048 5.809 0.656 1.211 0.285 42.075 41.890
69.000 -19.056 -1.018 -18.586 -1.005 -17.914 -1.151 -17.443 -1.390 -18.122 -0.987 -16.304 -0.282 -15.845 -0.203 -18.312 -1.306 -16.601 -0.147 -16.965 -0.168 -16.548 -0.141 -15.702 -1.153 5.941 0.737 1.129 0.287 42.054 41.906
70.000 -19.011 -1.119 -18.514 -1.105 -17.783 -1.258 -17.321 -1.507 -18.023 -1.071 -16.251 -0.325 -15.799 -0.241 -18.249 -1.394 -16.574 -0.166 -16.948 -0.197 -16.475 -0.170 -15.546 -1.262 6.110 0.843 1.042 0.288 42.033 41.925
71.000 -18.959 -1.224 -18.436 -1.209 -17.646 -1.370 -17.195 -1.628 -17.922 -1.158 -16.198 -0.373 -15.752 -0.285 -18.182 -1.484 -16.551 -0.187 -16.932 -0.230 -16.398 -0.203 -15.386 -1.375 6.326 0.980 0.949 0.287 42.011 41.949
72.000 -18.898 -1.333 -18.351 -1.317 -17.502 -1.485 -17.065 -1.751 -17.818 -1.247 -16.143 -0.426 -15.705 -0.335 -18.111 -1.576 -16.531 -0.212 -16.917 -0.266 -16.316 -0.242 -15.222 -1.492 6.601 1.160 0.851 0.282 41.991 41.976
73.000 -18.829 -1.446 -18.258 -1.429 -17.353 -1.603 -16.932 -1.876 -17.711 -1.340 -16.088 -0.484 -15.656 -0.390 -18.037 -1.668 -16.515 -0.239 -16.904 -0.305 -16.231 -0.287 -15.055 -1.612 6.955 1.401 0.750 0.273 41.972 42.008
74.000 -18.752 -1.562 -18.158 -1.545 -17.199 -1.725 -16.794 -2.003 -17.602 -1.435 -16.031 -0.548 -15.608 -0.450 -17.959 -1.762 -16.501 -0.270 -16.891 -0.347 -16.142 -0.336 -14.884 -1.735 7.411 1.733 0.649 0.261 41.957 42.048
75.000 -18.666 -1.682 -18.051 -1.664 -17.040 -1.848 -16.654 -2.132 -17.491 -1.532 -15.974 -0.616 -15.558 -0.516 -17.877 -1.857 -16.491 -0.304 -16.880 -0.392 -16.049 -0.391 -14.712 -1.860 8.009 2.206 0.550 0.246 41.948 42.100
76.000 -18.572 -1.804 -17.937 -1.786 -16.877 -1.974 -16.510 -2.262 -17.377 -1.632 -15.915 -0.690 -15.507 -0.587 -17.792 -1.952 -16.484 -0.341 -16.869 -0.440 -15.952 -0.452 -14.537 -1.987 8.807 2.907 0.456 0.227 41.951 42.169
77.000 -18.468 -1.929 -17.816 -1.910 -16.709 -2.102 -16.364 -2.392 -17.262 -1.734 -15.855 -0.768 -15.456 -0.663 -17.704 -2.048 -16.480 -0.380 -16.859 -0.490 -15.851 -0.517 -14.362 -2.115 9.912 3.998 0.369 0.206 41.972 42.265
78.000 -18.357 -2.055 -17.688 -2.036 -16.539 -2.231 -16.216 -2.522 -17.144 -1.838 -15.794 -0.851 -15.403 -0.745 -17.613 -2.144 -16.478 -0.421 -16.850 -0.543 -15.746 -0.589 -14.186 -2.244 11.550 5.824 0.289 0.182 42.026 42.402
79.000 -18.237 -2.183 -17.554 -2.164 -16.366 -2.361 -16.066 -2.653 -17.025 -1.943 -15.731 -0.940 -15.349 -0.832 -17.518 -2.240 -16.479 -0.465 -16.840 -0.598 -15.638 -0.666 -14.010 -2.374 13.890 8.737 0.223 0.156 42.119 42.578
80.000 -18.109 -2.312 -17.413 -2.293 -16.190 -2.491 -15.915 -2.782 -16.905 -2.049 -15.667 -1.032 -15.294 -0.923 -17.421 -2.336 -16.481 -0.510 -16.831 -0.655 -15.526 -0.748 -13.835 -2.504 18.443 15.054 0.159 0.124 42.318 42.876
81.000 -17.973 -2.442 -17.267 -2.422 -16.013 -2.621 -15.762 -2.910 -16.782 -2.157 -15.601 -1.129 -15.238 -1.020 -17.321 -2.432 -16.485 -0.556 -16.822 -0.713 -15.412 -0.835 -13.661 -2.634 22.860 21.928 0.124 0.103 42.477 43.099
82.000 -17.830 -2.572 -17.116 -2.552 -15.835 -2.750 -15.609 -3.037 -16.659 -2.265 -15.534 -1.231 -15.180 -1.121 -17.219 -2.527 -16.490 -0.602 -16.813 -0.772 -15.294 -0.927 -13.489 -2.762 26.682 28.602 0.103 0.090 42.584 43.250
83.000 -17.679 -2.702 -16.960 -2.682 -15.656 -2.879 -15.455 -3.162 -16.534 -2.375 -15.464 -1.336 -15.120 -1.226 -17.114 -2.622 -16.496 -0.649 -16.802 -0.832 -15.174 -1.025 -13.320 -2.890 29.774 34.691 0.089 0.081 42.644 43.344
84.000 -17.522 -2.831 -16.799 -2.811 -15.477 -3.006 -15.301 -3.285 -16.407 -2.484 -15.393 -1.445 -15.059 -1.335 -17.007 -2.715 -16.502 -0.696 -16.791 -0.893 -15.052 -1.127 -13.153 -3.016 32.193 40.113 0.078 0.075 42.668 43.396
85.000 -17.359 -2.959 -16.634 -2.939 -15.298 -3.132 -15.148 -3.405 -16.280 -2.594 -15.321 -1.558 -14.996 -1.448 -16.898 -2.808 -16.508 -0.742 -16.778 -0.953 -14.928 -1.233 -12.990 -3.140 34.079 44.992 0.069 0.070 42.666 43.418
86.000 -17.190 -3.085 -16.465 -3.066 -15.120 -3.255 -14.995 -3.522 -16.152 -2.703 -15.246 -1.673 -14.931 -1.564 -16.787 -2.900 -16.514 -0.787 -16.764 -1.013 -14.802 -1.343 -12.831 -3.262 35.492 49.273 0.062 0.065 42.643 43.416
87.000 -17.016 -3.209 -16.293 -3.191 -14.944 -3.376 -14.842 -3.636 -16.022 -2.812 -15.169 -1.791 -14.864 -1.684 -16.675 -2.990 -16.518 -0.830 -16.749 -1.071 -14.674 -1.457 -12.677 -3.382 36.504 52.937 0.056 0.062 42.604 43.397
88.000 -16.838 -3.332 -16.119 -3.313 -14.769 -3.494 -14.691 -3.747 -15.892 -2.921 -15.090 -1.912 -14.795 -1.806 -16.560 -3.079 -16.521 -0.870 -16.731 -1.129 -14.545 -1.575 -12.527 -3.498 37.163 55.908 0.051 0.058 42.553 43.362
89.000 -16.655 -3.451 -15.943 -3.433 -14.596 -3.610 -14.542 -3.854 -15.761 -3.029 -15.010 -2.034 -14.724 -1.930 -16.445 -3.167 -16.522 -0.908 -16.710 -1.184 -14.416 -1.696 -12.382 -3.612 37.497 58.081 0.047 0.055 42.493 43.314
90.000 -16.470 -3.568 -15.765 -3.551 -14.426 -3.722 -14.394 -3.957 -15.630 -3.135 -14.927 -2.158 -14.651 -2.056 -16.328 -3.252 -16.521 -0.941 -16.687 -1.237 -14.286 -1.819 -12.243 -3.722 37.524 59.352 0.043 0.052 42.423 43.254
91.000 -16.281 -3.681 -15.587 -3.665 -14.259 -3.830 -14.248 -4.056 -15.498 -3.241 -14.842 -2.283 -14.576 -2.183 -16.210 -3.336 -16.517 -0.971 -16.661 -1.288 -14.156 -1.944 -12.109 -3.828 37.259 59.652 0.040 0.050 42.347 43.184
92.000 -16.091 -3.791 -15.408 -3.775 -14.095 -3.934 -14.104 -4.151 -15.366 -3.344 -14.756 -2.409 -14.500 -2.311 -16.091 -3.418 -16.510 -0.997 -16.632 -1.335 -14.026 -2.072 -11.981 -3.931 36.724 58.978 0.038 0.047 42.265 43.103
93.000 -15.900 -3.898 -15.229 -3.882 -13.934 -4.035 -13.963 -4.242 -15.234 -3.447 -14.667 -2.536 -14.421 -2.440 -15.971 -3.497 -16.500 -1.017 -16.599 -1.379 -13.897 -2.201 -11.859 -4.029 35.939 57.380 0.036 0.045 42.177 43.014
94.000 -15.707 -4.000 -15.050 -3.985 -13.777 -4.131 -13.824 -4.328 -15.101 -3.547 -14.577 -2.662 -14.340 -2.569 -15.850 -3.574 -16.485 -1.031 -16.563 -1.420 -13.768 -2.330 -11.744 -4.124 34.954 55.036 0.034 0.043 42.086 42.918
95.000 -15.515 -4.098 -14.873 -4.084 -13.625 -4.224 -13.689 -4.410 -14.969 -3.645 -14.485 -2.788 -14.257 -2.698 -15.729 -3.649 -16.467 -1.040 -16.523 -1.456 -13.641 -2.460 -11.635 -4.215 33.795 52.079 0.032 0.041 41.992 42.815
96.000 -15.322 -4.192 -14.697 -4.179 -13.477 -4.312 -13.556 -4.488 -14.836 -3.741 -14.391 -2.913 -14.173 -2.826 -15.607 -3.722 -16.444 -1.042 -16.479 -1.489 -13.515 -2.590 -11.532 -4.301 32.507 48.718 0.031 0.040 41.895 42.708
97.000 -15.131 -4.282 -14.524 -4.269 -13.333 -4.395 -13.426 -4.561 -14.705 -3.834 -14.296 -3.036 -14.087 -2.953 -15.486 -3.792 -16.416 -1.037 -16.431 -1.517 -13.391 -2.720 -11.435 -4.383 31.166 45.257 0.031 0.038 41.799 42.600
98.000 -14.942 -4.367 -14.353 -4.355 -13.193 -4.474 -13.300 -4.630 -14.573 -3.925 -14.200 -3.158 -14.000 -3.078 -15.364 -3.859 -16.384 -1.025 -16.379 -1.541 -13.269 -2.849 -11.345 -4.461 29.754 41.678 0.030 0.037 41.702 42.490
99.000 -14.754 -4.448 -14.184 -4.437 -13.059 -4.549 -13.177 -4.695 -14.442 -4.013 -14.102 -3.278 -13.912 -3.202 -15.242 -3.924 -16.347 -1.006 -16.323 -1.560 -13.149 -2.977 -11.261 -4.534 28.310 38.150 0.030 0.036 41.607 42.379
100.000 -14.570 -4.525 -14.019 -4.514 -12.929 -4.619 -13.058 -4.756 -14.313 -4.098 -14.003 -3.396 -13.822 -3.323 -15.120 -3.986 -16.304 -0.979 -16.263 -1.576 -13.031 -3.103 -11.183 -4.604 26.865 34.786 0.030 0.036 41.512 42.270
101.000 -14.388 -4.597 -13.857 -4.587 -12.805 -4.685 -12.942 -4.812 -14.184 -4.180 -13.904 -3.511 -13.731 -3.441 -14.999 -4.045 -16.257 -0.944 -16.198 -1.588 -12.917 -3.227 -11.112 -4.669 25.438 31.658 0.030 0.036 41.421 42.163
102.000 -14.209 -4.664 -13.700 -4.655 -12.685 -4.747 -12.830 -4.864 -14.056 -4.259 -13.804 -3.624 -13.639 -3.557 -14.878 -4.102 -16.204 -0.902 -16.129 -1.596 -12.805 -3.349 -11.046 -4.730 24.039 28.799 0.030 0.036 41.332 42.061
103.000 -14.035 -4.728 -13.546 -4.719 -12.570 -4.804 -12.722 -4.913 -13.930 -4.335 -13.703 -3.733 -13.547 -3.670 -14.758 -4.156 -16.146 -0.852 -16.056 -1.601 -12.696 -3.468 -10.986 -4.787 22.672 26.218 0.031 0.037 41.247 41.964
104.000 -13.865 -4.787 -13.397 -4.779 -12.460 -4.858 -12.617 -4.958 -13.805 -4.407 -13.603 -3.839 -13.455 -3.779 -14.638 -4.207 -16.083 -0.793 -15.979 -1.604 -12.591 -3.584 -10.932 -4.840 21.763 24.995 0.031 0.038 41.181 41.898
105.000 -13.699 -4.842 -13.252 -4.834 -12.356 -4.907 -12.516 -4.999 -13.682 -4.477 -13.502 -3.941 -13.362 -3.884 -14.519 -4.256 -16.015 -0.728 -15.898 -1.605 -12.489 -3.697 -10.883 -4.889 20.586 23.239 0.032 0.040 41.110 41.823
106.000 -13.538 -4.893 -13.112 -4.886 -12.256 -4.953 -12.420 -5.037 -13.560 -4.543 -13.401 -4.039 -13.269 -3.986 -14.401 -4.303 -15.943 -0.655 -15.813 -1.605 -12.390 -3.806 -10.839 -4.935 19.211 21.154 0.034 0.042 41.037 41.743
107.000 -13.382 -4.940 -12.977 -4.933 -12.161 -4.995 -12.327 -5.071 -13.441 -4.606 -13.301 -4.134 -13.177 -4.083 -14.285 -4.347 -15.865 -0.576 -15.725 -1.606 -12.295 -3.911 -10.801 -4.977 17.642 18.787 0.037 0.046 40.966 41.661
108.000 -13.231 -4.983 -12.847 -4.977 -12.070 -5.033 -12.238 -5.103 -13.324 -4.665 -13.202 -4.224 -13.085 -4.177 -14.169 -4.389 -15.783 -0.492 -15.633 -1.607 -12.204 -4.013 -10.767 -5.016 15.974 16.370 0.042 0.053 40.903 41.586
109.000 -13.086 -5.023 -12.721 -5.018 -11.985 -5.069 -12.152 -5.132 -13.209 -4.722 -13.103 -4.310 -12.993 -4.266 -14.055 -4.428 -15.696 -0.405 -15.537 -1.611 -12.116 -4.110 -10.737 -5.052 14.562 14.503 0.048 0.061 40.872 41.546
110.000 -12.946 -5.059 -12.602 -5.054 -11.904 -5.101 -12.071 -5.158 -13.096 -4.775 -13.006 -4.392 -12.902 -4.351 -13.943 -4.466 -15.605 -0.321 -15.439 -1.619 -12.033 -4.203 -10.711 -5.084 13.216 12.484 0.059 0.072 40.877 41.531
111.000 -12.812 -5.092 -12.487 -5.088 -11.828 -5.130 -11.993 -5.181 -12.987 -4.825 -12.910 -4.470 -12.813 -4.432 -13.832 -4.502 -15.511 -0.252 -15.338 -1.631 -11.953 -4.292 -10.689 -5.114 12.141 10.436 0.074 0.084 40.927 41.541
112.000 -12.683 -5.122 -12.377 -5.119 -11.755 -5.156 -11.919 -5.202 -12.879 -4.872 -12.815 -4.544 -12.724 -4.508 -13.722 -4.535 -15.413 -0.224 -15.234 -1.649 -11.877 -4.376 -10.671 -5.141 11.564 9.059 0.084 0.088 40.956 41.532
113.000 -12.560 -5.150 -12.273 -5.146 -11.688 -5.180 -11.848 -5.221 -12.775 -4.915 -12.722 -4.613 -12.637 -4.580 -13.615 -4.568 -15.311 -0.260 -15.128 -1.673 -11.804 -4.456 -10.656 -5.166 11.592 8.948 0.077 0.080 40.878 41.450
