"Time (MJD)" Misc/Atlas.orange Misc/Atlas.orange_err PAN-STARRS/PS1.g PAN-STARRS/PS1.g_err PAN-STARRS/PS1.i PAN-STARRS/PS1.i_err PAN-STARRS/PS1.r PAN-STARRS/PS1.r_err PAN-STARRS/PS1.z PAN-STARRS/PS1.z_err Palomar/ZTF.g Palomar/ZTF.g_err Palomar/ZTF.r Palomar/ZTF.r_err Swift/UVOT.B_fil Swift/UVOT.B_fil_err Swift/UVOT.UVM2_fil Swift/UVOT.UVM2_fil_err Swift/UVOT.UVW1_fil Swift/UVOT.UVW1_fil_err Swift/UVOT.UVW2_fil Swift/UVOT.UVW2_fil_err Swift/UVOT.U_fil Swift/UVOT.U_fil_err Swift/UVOT.V_fil Swift/UVOT.V_fil_err "Temp./1e3 (K)" "Temp. Err." "Radius/1e15 (cm)" "Radius Err." "Log10(Bol. Lum)" "Log10(Bol. Err)"
-31.000 -16.381 -1.001 -17.073 -0.971 -19.889 -1.126 -19.084 -1.264 -19.476 -0.609 -18.707 -0.033 -18.521 -0.053 -14.398 -0.995 -17.478 -0.066 -18.267 -0.040 -18.063 -0.156 -18.188 -0.118 -17.319 -1.484 11.587 11.756 0.703 0.896 42.803 43.484
-30.000 -16.632 -0.907 -17.281 -0.878 -19.915 -1.025 -19.140 -1.157 -19.555 -0.565 -18.820 -0.025 -18.660 -0.039 -14.876 -0.931 -17.770 -0.052 -18.391 -0.032 -17.993 -0.160 -18.264 -0.087 -17.422 -1.360 16.884 9.616 0.572 0.330 43.278 43.685
-29.000 -16.876 -0.818 -17.479 -0.790 -19.930 -0.929 -19.189 -1.054 -19.621 -0.522 -18.915 -0.023 -18.778 -0.028 -15.329 -0.869 -18.034 -0.039 -18.498 -0.029 -17.924 -0.178 -18.331 -0.061 -17.518 -1.239 16.961 7.048 0.642 0.269 43.385 43.655
-28.000 -17.110 -0.733 -17.669 -0.707 -19.935 -0.837 -19.232 -0.955 -19.675 -0.481 -18.990 -0.024 -18.875 -0.019 -15.756 -0.809 -18.269 -0.029 -18.589 -0.029 -17.858 -0.205 -18.388 -0.042 -17.607 -1.122 16.855 5.221 0.696 0.217 43.444 43.587
-27.000 -17.335 -0.654 -17.848 -0.629 -19.931 -0.750 -19.268 -0.861 -19.718 -0.442 -19.047 -0.026 -18.952 -0.015 -16.156 -0.751 -18.477 -0.021 -18.664 -0.030 -17.796 -0.237 -18.436 -0.031 -17.689 -1.009 16.631 3.711 0.745 0.168 43.480 43.481
-26.000 -17.548 -0.579 -18.017 -0.556 -19.918 -0.669 -19.299 -0.772 -19.750 -0.405 -19.088 -0.028 -19.011 -0.014 -16.530 -0.695 -18.657 -0.017 -18.724 -0.031 -17.740 -0.272 -18.476 -0.028 -17.764 -0.901 15.976 2.566 0.809 0.134 43.482 43.341
-25.000 -17.749 -0.510 -18.175 -0.489 -19.897 -0.592 -19.324 -0.687 -19.774 -0.370 -19.114 -0.030 -19.052 -0.015 -16.878 -0.641 -18.810 -0.017 -18.770 -0.032 -17.690 -0.308 -18.508 -0.032 -17.833 -0.798 14.939 1.944 0.899 0.125 43.457 43.229
-24.000 -17.938 -0.446 -18.322 -0.426 -19.869 -0.521 -19.344 -0.608 -19.789 -0.336 -19.125 -0.031 -19.078 -0.017 -17.198 -0.589 -18.936 -0.020 -18.802 -0.032 -17.648 -0.345 -18.532 -0.037 -17.895 -0.701 14.190 1.775 0.973 0.135 43.437 43.195
-23.000 -18.114 -0.388 -18.456 -0.369 -19.834 -0.455 -19.359 -0.535 -19.798 -0.304 -19.124 -0.031 -19.089 -0.019 -17.493 -0.539 -19.035 -0.025 -18.823 -0.032 -17.616 -0.380 -18.549 -0.041 -17.950 -0.610 13.859 1.761 1.011 0.146 43.429 43.196
-22.000 -18.277 -0.334 -18.579 -0.317 -19.794 -0.394 -19.369 -0.466 -19.800 -0.274 -19.111 -0.031 -19.086 -0.021 -17.763 -0.492 -19.110 -0.029 -18.832 -0.031 -17.594 -0.416 -18.559 -0.044 -17.999 -0.524 13.768 1.749 1.021 0.149 43.426 43.194
-21.000 -18.426 -0.285 -18.690 -0.270 -19.748 -0.338 -19.376 -0.403 -19.797 -0.245 -19.088 -0.031 -19.072 -0.022 -18.007 -0.447 -19.160 -0.033 -18.832 -0.030 -17.583 -0.450 -18.563 -0.044 -18.042 -0.445 13.790 1.706 1.014 0.144 43.423 43.180
-20.000 -18.561 -0.242 -18.789 -0.227 -19.698 -0.288 -19.378 -0.346 -19.789 -0.219 -19.057 -0.030 -19.047 -0.023 -18.228 -0.405 -19.188 -0.037 -18.823 -0.029 -17.584 -0.484 -18.562 -0.044 -18.079 -0.373 13.878 1.642 0.998 0.136 43.421 43.158
-19.000 -18.681 -0.203 -18.876 -0.190 -19.645 -0.243 -19.378 -0.294 -19.779 -0.195 -19.018 -0.029 -19.013 -0.024 -18.426 -0.365 -19.194 -0.039 -18.806 -0.029 -17.598 -0.517 -18.556 -0.042 -18.110 -0.306 14.039 1.581 0.973 0.125 43.419 43.134
-18.000 -18.788 -0.168 -18.951 -0.157 -19.590 -0.202 -19.374 -0.247 -19.765 -0.172 -18.974 -0.029 -18.972 -0.025 -18.603 -0.328 -19.180 -0.041 -18.783 -0.028 -17.624 -0.549 -18.546 -0.040 -18.136 -0.247 14.310 1.543 0.939 0.115 43.421 43.116
-17.000 -18.882 -0.138 -19.015 -0.128 -19.533 -0.167 -19.369 -0.206 -19.750 -0.151 -18.924 -0.029 -18.925 -0.025 -18.759 -0.294 -19.148 -0.042 -18.755 -0.028 -17.663 -0.580 -18.532 -0.037 -18.157 -0.195 14.738 1.538 0.894 0.104 43.429 43.109
-16.000 -18.962 -0.112 -19.067 -0.103 -19.475 -0.136 -19.360 -0.170 -19.734 -0.133 -18.872 -0.028 -18.873 -0.026 -18.896 -0.262 -19.100 -0.042 -18.722 -0.028 -17.715 -0.610 -18.515 -0.034 -18.173 -0.150 15.351 1.558 0.841 0.094 43.447 43.113
-15.000 -19.028 -0.091 -19.110 -0.083 -19.416 -0.110 -19.350 -0.138 -19.717 -0.116 -18.817 -0.028 -18.817 -0.026 -19.015 -0.233 -19.036 -0.040 -18.686 -0.028 -17.780 -0.639 -18.495 -0.030 -18.185 -0.112 16.116 1.586 0.786 0.084 43.473 43.124
-14.000 -19.083 -0.073 -19.142 -0.066 -19.359 -0.088 -19.339 -0.112 -19.701 -0.101 -18.761 -0.029 -18.759 -0.026 -19.118 -0.206 -18.960 -0.038 -18.648 -0.029 -17.858 -0.667 -18.474 -0.028 -18.193 -0.083 16.947 1.604 0.735 0.075 43.501 43.135
-13.000 -19.126 -0.058 -19.165 -0.052 -19.302 -0.070 -19.326 -0.091 -19.685 -0.087 -18.705 -0.029 -18.700 -0.026 -19.206 -0.182 -18.872 -0.036 -18.609 -0.030 -17.948 -0.695 -18.451 -0.026 -18.197 -0.064 17.762 1.609 0.690 0.068 43.528 43.143
-12.000 -19.157 -0.047 -19.180 -0.042 -19.247 -0.057 -19.312 -0.074 -19.670 -0.076 -18.650 -0.029 -18.640 -0.027 -19.281 -0.160 -18.774 -0.034 -18.569 -0.031 -18.049 -0.721 -18.427 -0.025 -18.198 -0.056 18.555 1.616 0.650 0.062 43.553 43.153
-11.000 -19.178 -0.039 -19.186 -0.035 -19.195 -0.047 -19.297 -0.061 -19.656 -0.066 -18.596 -0.030 -18.581 -0.027 -19.343 -0.141 -18.669 -0.032 -18.529 -0.032 -18.160 -0.747 -18.402 -0.025 -18.196 -0.057 19.363 1.653 0.612 0.059 43.574 43.168
-10.000 -19.190 -0.033 -19.186 -0.030 -19.145 -0.040 -19.281 -0.052 -19.644 -0.058 -18.543 -0.030 -18.523 -0.027 -19.395 -0.125 -18.557 -0.033 -18.490 -0.033 -18.281 -0.772 -18.377 -0.026 -18.191 -0.061 20.189 1.749 0.574 0.058 43.592 43.194
-9.000 -19.194 -0.029 -19.179 -0.027 -19.099 -0.036 -19.265 -0.046 -19.634 -0.051 -18.494 -0.031 -18.467 -0.027 -19.438 -0.111 -18.440 -0.037 -18.453 -0.035 -18.411 -0.796 -18.353 -0.027 -18.184 -0.065 21.001 1.921 0.540 0.058 43.606 43.234
-8.000 -19.189 -0.026 -19.167 -0.025 -19.057 -0.034 -19.248 -0.043 -19.625 -0.046 -18.447 -0.031 -18.413 -0.026 -19.472 -0.099 -18.321 -0.045 -18.417 -0.036 -18.548 -0.819 -18.329 -0.028 -18.175 -0.067 21.731 2.152 0.510 0.060 43.616 43.280
-7.000 -19.179 -0.024 -19.151 -0.024 -19.018 -0.032 -19.231 -0.040 -19.618 -0.042 -18.403 -0.031 -18.362 -0.026 -19.500 -0.090 -18.199 -0.055 -18.384 -0.037 -18.690 -0.842 -18.306 -0.029 -18.164 -0.067 22.333 2.403 0.486 0.063 43.622 43.323
-6.000 -19.163 -0.023 -19.130 -0.023 -18.983 -0.031 -19.214 -0.038 -19.612 -0.040 -18.362 -0.032 -18.314 -0.026 -19.521 -0.083 -18.078 -0.067 -18.353 -0.038 -18.837 -0.865 -18.283 -0.030 -18.151 -0.065 22.797 2.635 0.468 0.065 43.624 43.356
-5.000 -19.142 -0.022 -19.107 -0.022 -18.952 -0.030 -19.197 -0.037 -19.608 -0.039 -18.324 -0.032 -18.269 -0.026 -19.537 -0.078 -17.958 -0.080 -18.325 -0.039 -18.987 -0.887 -18.262 -0.031 -18.137 -0.061 23.131 2.831 0.453 0.067 43.622 43.379
-4.000 -19.118 -0.022 -19.082 -0.022 -18.926 -0.029 -19.180 -0.036 -19.606 -0.038 -18.290 -0.032 -18.227 -0.025 -19.550 -0.076 -17.840 -0.095 -18.300 -0.040 -19.138 -0.908 -18.242 -0.032 -18.122 -0.056 23.346 2.988 0.442 0.068 43.616 43.392
-3.000 -19.092 -0.022 -19.055 -0.022 -18.904 -0.029 -19.163 -0.035 -19.604 -0.039 -18.259 -0.033 -18.189 -0.025 -19.558 -0.075 -17.725 -0.111 -18.277 -0.041 -19.289 -0.929 -18.224 -0.031 -18.106 -0.051 23.454 3.117 0.433 0.069 43.607 43.399
-2.000 -19.064 -0.022 -19.028 -0.022 -18.886 -0.029 -19.145 -0.035 -19.603 -0.040 -18.231 -0.033 -18.153 -0.024 -19.564 -0.076 -17.615 -0.128 -18.258 -0.041 -19.439 -0.950 -18.206 -0.031 -18.089 -0.047 23.495 3.236 0.427 0.070 43.597 43.403
-1.000 -19.036 -0.024 -19.001 -0.024 -18.872 -0.030 -19.128 -0.037 -19.602 -0.041 -18.206 -0.033 -18.120 -0.024 -19.568 -0.077 -17.510 -0.145 -18.241 -0.042 -19.585 -0.971 -18.191 -0.030 -18.072 -0.047 23.538 3.369 0.420 0.070 43.586 43.407
-0.000 -19.008 -0.025 -18.974 -0.025 -18.862 -0.031 -19.110 -0.039 -19.602 -0.043 -18.183 -0.033 -18.090 -0.023 -19.570 -0.080 -17.411 -0.162 -18.227 -0.042 -19.727 -0.991 -18.176 -0.029 -18.054 -0.050 23.625 3.526 0.412 0.070 43.576 43.414
1.000 -18.980 -0.027 -18.949 -0.027 -18.855 -0.033 -19.093 -0.041 -19.602 -0.045 -18.162 -0.033 -18.063 -0.023 -19.570 -0.084 -17.318 -0.180 -18.215 -0.043 -19.862 -1.010 -18.163 -0.028 -18.036 -0.056 23.705 3.699 0.405 0.071 43.566 43.421
2.000 -18.955 -0.030 -18.926 -0.029 -18.851 -0.036 -19.075 -0.045 -19.601 -0.047 -18.143 -0.033 -18.037 -0.022 -19.570 -0.087 -17.232 -0.197 -18.205 -0.043 -19.990 -1.029 -18.151 -0.026 -18.018 -0.066 23.695 3.876 0.399 0.072 43.554 43.427
3.000 -18.931 -0.032 -18.905 -0.030 -18.851 -0.038 -19.058 -0.049 -19.600 -0.049 -18.125 -0.033 -18.013 -0.021 -19.568 -0.091 -17.154 -0.215 -18.196 -0.043 -20.109 -1.048 -18.140 -0.024 -18.000 -0.077 23.559 4.051 0.397 0.073 43.539 43.432
4.000 -18.911 -0.034 -18.886 -0.032 -18.853 -0.041 -19.040 -0.052 -19.598 -0.050 -18.108 -0.033 -17.990 -0.020 -19.565 -0.094 -17.083 -0.232 -18.190 -0.043 -20.219 -1.066 -18.130 -0.022 -17.981 -0.088 23.280 4.219 0.398 0.076 43.520 43.434
5.000 -18.894 -0.035 -18.871 -0.033 -18.857 -0.043 -19.022 -0.056 -19.595 -0.052 -18.092 -0.033 -17.968 -0.020 -19.562 -0.098 -17.020 -0.248 -18.184 -0.043 -20.317 -1.083 -18.121 -0.020 -17.962 -0.100 22.956 4.400 0.400 0.080 43.501 43.438
6.000 -18.880 -0.037 -18.858 -0.034 -18.862 -0.045 -19.004 -0.059 -19.591 -0.053 -18.076 -0.033 -17.946 -0.019 -19.557 -0.101 -16.965 -0.264 -18.179 -0.042 -20.403 -1.100 -18.112 -0.018 -17.943 -0.111 22.483 4.543 0.406 0.085 43.478 43.437
7.000 -18.869 -0.038 -18.848 -0.035 -18.870 -0.046 -18.986 -0.061 -19.585 -0.053 -18.060 -0.033 -17.925 -0.019 -19.552 -0.103 -16.918 -0.279 -18.175 -0.042 -20.477 -1.116 -18.104 -0.017 -17.924 -0.121 21.949 4.643 0.414 0.090 43.453 43.431
8.000 -18.863 -0.038 -18.842 -0.036 -18.878 -0.047 -18.967 -0.063 -19.578 -0.053 -18.044 -0.032 -17.903 -0.019 -19.545 -0.105 -16.879 -0.293 -18.171 -0.042 -20.538 -1.131 -18.096 -0.016 -17.905 -0.131 21.504 4.713 0.421 0.094 43.432 43.425
9.000 -18.860 -0.038 -18.839 -0.036 -18.887 -0.048 -18.949 -0.065 -19.569 -0.053 -18.027 -0.032 -17.881 -0.019 -19.537 -0.106 -16.848 -0.306 -18.167 -0.041 -20.585 -1.145 -18.088 -0.016 -17.886 -0.140 21.344 4.782 0.422 0.097 43.421 43.424
10.000 -18.862 -0.038 -18.838 -0.035 -18.896 -0.048 -18.931 -0.065 -19.559 -0.052 -18.010 -0.032 -17.859 -0.020 -19.528 -0.107 -16.824 -0.317 -18.162 -0.041 -20.618 -1.158 -18.080 -0.016 -17.867 -0.147 21.756 4.931 0.412 0.095 43.433 43.440
11.000 -18.866 -0.037 -18.841 -0.034 -18.905 -0.047 -18.913 -0.065 -19.547 -0.051 -17.991 -0.032 -17.835 -0.021 -19.518 -0.106 -16.808 -0.328 -18.157 -0.040 -20.637 -1.170 -18.072 -0.017 -17.848 -0.154 22.699 5.166 0.392 0.091 43.464 43.473
12.000 -18.875 -0.036 -18.846 -0.033 -18.914 -0.046 -18.895 -0.064 -19.534 -0.050 -17.971 -0.032 -17.810 -0.022 -19.506 -0.105 -16.799 -0.337 -18.150 -0.040 -20.641 -1.181 -18.063 -0.019 -17.829 -0.160 23.875 5.430 0.371 0.085 43.502 43.511
13.000 -18.886 -0.035 -18.854 -0.032 -18.923 -0.045 -18.877 -0.063 -19.519 -0.048 -17.950 -0.033 -17.785 -0.024 -19.493 -0.104 -16.796 -0.345 -18.143 -0.040 -20.632 -1.190 -18.054 -0.021 -17.809 -0.165 25.124 5.711 0.351 0.081 43.543 43.551
14.000 -18.900 -0.033 -18.864 -0.031 -18.931 -0.043 -18.859 -0.061 -19.504 -0.046 -17.928 -0.033 -17.757 -0.026 -19.478 -0.102 -16.799 -0.351 -18.135 -0.040 -20.610 -1.198 -18.044 -0.024 -17.791 -0.169 26.345 6.011 0.333 0.077 43.582 43.592
15.000 -18.916 -0.031 -18.875 -0.029 -18.937 -0.041 -18.842 -0.059 -19.487 -0.044 -17.905 -0.034 -17.729 -0.029 -19.461 -0.100 -16.808 -0.355 -18.125 -0.040 -20.574 -1.205 -18.034 -0.027 -17.772 -0.173 27.510 6.340 0.319 0.075 43.618 43.633
16.000 -18.935 -0.030 -18.889 -0.027 -18.943 -0.038 -18.825 -0.056 -19.469 -0.041 -17.880 -0.035 -17.699 -0.031 -19.443 -0.097 -16.823 -0.358 -18.114 -0.041 -20.526 -1.210 -18.023 -0.029 -17.753 -0.176 28.619 6.714 0.307 0.073 43.653 43.676
17.000 -18.955 -0.028 -18.903 -0.026 -18.948 -0.036 -18.809 -0.054 -19.451 -0.039 -17.854 -0.036 -17.668 -0.033 -19.423 -0.094 -16.842 -0.360 -18.102 -0.041 -20.466 -1.214 -18.010 -0.032 -17.735 -0.179 29.686 7.142 0.296 0.073 43.686 43.720
18.000 -18.976 -0.026 -18.918 -0.024 -18.951 -0.034 -18.794 -0.051 -19.433 -0.037 -17.827 -0.037 -17.635 -0.036 -19.401 -0.091 -16.866 -0.359 -18.089 -0.041 -20.395 -1.216 -17.997 -0.035 -17.717 -0.182 30.733 7.629 0.287 0.073 43.719 43.766
19.000 -18.997 -0.024 -18.934 -0.023 -18.954 -0.032 -18.780 -0.049 -19.415 -0.035 -17.799 -0.038 -17.602 -0.038 -19.378 -0.088 -16.894 -0.357 -18.074 -0.042 -20.314 -1.217 -17.983 -0.037 -17.699 -0.185 31.801 8.188 0.278 0.073 43.751 43.814
20.000 -19.019 -0.023 -18.949 -0.022 -18.955 -0.030 -18.766 -0.047 -19.397 -0.034 -17.771 -0.039 -17.567 -0.041 -19.353 -0.086 -16.925 -0.354 -18.058 -0.042 -20.224 -1.217 -17.968 -0.039 -17.682 -0.188 32.955 8.845 0.269 0.073 43.784 43.865
21.000 -19.040 -0.022 -18.965 -0.021 -18.956 -0.029 -18.754 -0.046 -19.379 -0.033 -17.742 -0.040 -17.532 -0.043 -19.327 -0.085 -16.959 -0.349 -18.040 -0.043 -20.127 -1.215 -17.952 -0.041 -17.665 -0.191 34.285 9.651 0.259 0.073 43.821 43.921
22.000 -19.060 -0.021 -18.980 -0.021 -18.955 -0.029 -18.743 -0.045 -19.362 -0.034 -17.713 -0.041 -17.496 -0.044 -19.300 -0.084 -16.996 -0.342 -18.022 -0.043 -20.022 -1.212 -17.935 -0.043 -17.650 -0.194 35.889 10.680 0.249 0.072 43.863 43.986
23.000 -19.079 -0.021 -18.994 -0.021 -18.954 -0.029 -18.734 -0.045 -19.347 -0.034 -17.684 -0.042 -17.460 -0.046 -19.272 -0.084 -17.034 -0.334 -18.002 -0.044 -19.912 -1.208 -17.917 -0.044 -17.635 -0.196 37.858 12.032 0.236 0.072 43.912 44.061
24.000 -19.097 -0.021 -19.007 -0.021 -18.952 -0.029 -18.725 -0.045 -19.332 -0.036 -17.654 -0.043 -17.423 -0.047 -19.243 -0.085 -17.074 -0.325 -17.982 -0.044 -19.798 -1.204 -17.898 -0.045 -17.621 -0.199 40.000 13.606 0.224 0.071 43.963 44.139
25.000 -19.113 -0.021 -19.019 -0.021 -18.950 -0.030 -18.719 -0.045 -19.319 -0.037 -17.625 -0.044 -17.386 -0.048 -19.214 -0.087 -17.115 -0.314 -17.961 -0.044 -19.681 -1.198 -17.878 -0.045 -17.608 -0.200 40.000 13.528 0.224 0.070 43.962 44.135
26.000 -19.127 -0.022 -19.029 -0.021 -18.948 -0.030 -18.713 -0.046 -19.307 -0.039 -17.596 -0.044 -17.349 -0.049 -19.184 -0.089 -17.156 -0.302 -17.940 -0.045 -19.561 -1.192 -17.858 -0.046 -17.596 -0.202 40.000 13.553 0.223 0.069 43.959 44.132
27.000 -19.138 -0.022 -19.038 -0.022 -18.946 -0.031 -18.710 -0.047 -19.298 -0.041 -17.568 -0.044 -17.313 -0.049 -19.155 -0.093 -17.197 -0.289 -17.918 -0.045 -19.441 -1.185 -17.837 -0.045 -17.585 -0.202 40.000 13.687 0.222 0.069 43.954 44.131
28.000 -19.147 -0.023 -19.045 -0.022 -18.944 -0.032 -18.708 -0.048 -19.289 -0.043 -17.541 -0.045 -17.277 -0.049 -19.126 -0.096 -17.238 -0.275 -17.896 -0.045 -19.320 -1.178 -17.815 -0.045 -17.575 -0.201 40.000 13.925 0.221 0.069 43.949 44.133
29.000 -19.154 -0.023 -19.051 -0.023 -18.943 -0.032 -18.707 -0.048 -19.283 -0.045 -17.514 -0.044 -17.241 -0.049 -19.098 -0.100 -17.279 -0.260 -17.874 -0.045 -19.202 -1.171 -17.793 -0.044 -17.567 -0.199 40.000 14.250 0.219 0.070 43.943 44.136
30.000 -19.159 -0.024 -19.055 -0.023 -18.942 -0.032 -18.708 -0.049 -19.279 -0.047 -17.489 -0.044 -17.207 -0.049 -19.071 -0.105 -17.318 -0.245 -17.852 -0.045 -19.085 -1.163 -17.771 -0.043 -17.560 -0.196 40.000 14.645 0.217 0.070 43.936 44.140
31.000 -19.161 -0.024 -19.058 -0.024 -18.942 -0.032 -18.710 -0.050 -19.276 -0.048 -17.464 -0.044 -17.172 -0.049 -19.044 -0.109 -17.355 -0.229 -17.830 -0.044 -18.972 -1.156 -17.748 -0.041 -17.554 -0.192 40.000 15.089 0.216 0.071 43.928 44.145
32.000 -19.161 -0.025 -19.060 -0.024 -18.944 -0.032 -18.714 -0.051 -19.275 -0.050 -17.440 -0.044 -17.139 -0.048 -19.019 -0.113 -17.390 -0.212 -17.808 -0.044 -18.863 -1.148 -17.725 -0.040 -17.550 -0.186 40.000 15.562 0.214 0.072 43.920 44.150
33.000 -19.159 -0.025 -19.060 -0.024 -18.946 -0.032 -18.719 -0.052 -19.275 -0.051 -17.417 -0.044 -17.106 -0.048 -18.996 -0.116 -17.423 -0.195 -17.786 -0.044 -18.758 -1.141 -17.702 -0.038 -17.546 -0.179 40.000 16.046 0.212 0.073 43.913 44.156
34.000 -19.155 -0.025 -19.059 -0.025 -18.949 -0.031 -18.725 -0.053 -19.277 -0.052 -17.395 -0.044 -17.075 -0.048 -18.974 -0.119 -17.453 -0.179 -17.764 -0.045 -18.660 -1.135 -17.679 -0.037 -17.544 -0.170 40.000 16.526 0.210 0.075 43.906 44.161
35.000 -19.149 -0.026 -19.056 -0.025 -18.954 -0.031 -18.732 -0.055 -19.280 -0.053 -17.374 -0.044 -17.044 -0.048 -18.953 -0.122 -17.480 -0.162 -17.743 -0.045 -18.567 -1.129 -17.656 -0.035 -17.542 -0.160 40.000 16.988 0.209 0.076 43.900 44.166
36.000 -19.143 -0.026 -19.053 -0.025 -18.960 -0.031 -18.739 -0.056 -19.284 -0.054 -17.354 -0.045 -17.014 -0.049 -18.935 -0.124 -17.504 -0.146 -17.721 -0.045 -18.481 -1.123 -17.633 -0.034 -17.541 -0.150 40.000 17.422 0.207 0.077 43.894 44.171
37.000 -19.135 -0.027 -19.050 -0.026 -18.967 -0.031 -18.746 -0.058 -19.289 -0.055 -17.334 -0.045 -16.984 -0.050 -18.918 -0.126 -17.525 -0.130 -17.700 -0.045 -18.402 -1.118 -17.610 -0.033 -17.541 -0.138 40.000 17.820 0.206 0.078 43.889 44.176
38.000 -19.127 -0.028 -19.046 -0.026 -18.975 -0.032 -18.754 -0.060 -19.294 -0.055 -17.315 -0.047 -16.955 -0.052 -18.903 -0.126 -17.541 -0.114 -17.679 -0.046 -18.330 -1.113 -17.588 -0.033 -17.540 -0.125 40.000 18.172 0.205 0.079 43.885 44.180
39.000 -19.118 -0.028 -19.042 -0.027 -18.984 -0.033 -18.762 -0.062 -19.299 -0.056 -17.296 -0.049 -16.927 -0.054 -18.890 -0.127 -17.554 -0.099 -17.659 -0.046 -18.265 -1.109 -17.566 -0.033 -17.540 -0.112 40.000 18.466 0.205 0.079 43.882 44.184
40.000 -19.110 -0.029 -19.037 -0.028 -18.994 -0.034 -18.769 -0.064 -19.304 -0.056 -17.277 -0.051 -16.899 -0.056 -18.879 -0.126 -17.562 -0.085 -17.638 -0.047 -18.209 -1.106 -17.544 -0.033 -17.540 -0.100 40.000 18.683 0.204 0.080 43.881 44.187
41.000 -19.102 -0.030 -19.033 -0.029 -19.005 -0.035 -18.775 -0.065 -19.308 -0.056 -17.258 -0.053 -16.871 -0.059 -18.869 -0.125 -17.567 -0.072 -17.617 -0.047 -18.159 -1.103 -17.522 -0.033 -17.538 -0.087 40.000 18.795 0.204 0.080 43.881 44.190
42.000 -19.095 -0.031 -19.029 -0.029 -19.015 -0.036 -18.780 -0.066 -19.311 -0.056 -17.239 -0.056 -16.843 -0.062 -18.860 -0.124 -17.566 -0.061 -17.597 -0.047 -18.117 -1.101 -17.500 -0.033 -17.536 -0.076 40.000 18.763 0.205 0.080 43.883 44.191
43.000 -19.088 -0.031 -19.026 -0.030 -19.026 -0.037 -18.783 -0.066 -19.313 -0.056 -17.220 -0.059 -16.815 -0.066 -18.853 -0.123 -17.562 -0.050 -17.576 -0.047 -18.082 -1.100 -17.479 -0.033 -17.532 -0.067 40.000 18.540 0.206 0.079 43.887 44.189
44.000 -19.083 -0.031 -19.023 -0.030 -19.036 -0.037 -18.785 -0.065 -19.313 -0.057 -17.200 -0.063 -16.788 -0.069 -18.846 -0.123 -17.553 -0.041 -17.555 -0.048 -18.054 -1.098 -17.458 -0.033 -17.526 -0.061 40.000 18.082 0.207 0.078 43.893 44.184
45.000 -19.080 -0.030 -19.020 -0.030 -19.045 -0.037 -18.785 -0.063 -19.311 -0.057 -17.180 -0.066 -16.759 -0.073 -18.840 -0.124 -17.540 -0.034 -17.533 -0.047 -18.033 -1.098 -17.437 -0.033 -17.518 -0.058 40.000 17.394 0.208 0.075 43.899 44.174
46.000 -19.078 -0.030 -19.018 -0.031 -19.053 -0.037 -18.782 -0.061 -19.307 -0.059 -17.159 -0.069 -16.731 -0.076 -18.835 -0.128 -17.523 -0.030 -17.511 -0.047 -18.018 -1.097 -17.415 -0.033 -17.507 -0.059 40.000 16.605 0.210 0.072 43.904 44.158
47.000 -19.078 -0.029 -19.016 -0.031 -19.059 -0.037 -18.775 -0.061 -19.300 -0.062 -17.136 -0.073 -16.702 -0.080 -18.829 -0.134 -17.501 -0.027 -17.489 -0.047 -18.008 -1.098 -17.394 -0.033 -17.493 -0.063 40.000 16.007 0.210 0.069 43.905 44.143
48.000 -19.079 -0.030 -19.015 -0.033 -19.062 -0.038 -18.766 -0.062 -19.291 -0.067 -17.113 -0.076 -16.672 -0.084 -18.824 -0.144 -17.476 -0.027 -17.466 -0.046 -18.004 -1.098 -17.373 -0.032 -17.475 -0.069 40.000 15.975 0.209 0.068 43.901 44.137
49.000 -19.083 -0.033 -19.014 -0.037 -19.064 -0.042 -18.753 -0.068 -19.278 -0.075 -17.088 -0.079 -16.641 -0.087 -18.817 -0.159 -17.447 -0.029 -17.443 -0.046 -18.005 -1.099 -17.351 -0.032 -17.453 -0.078 40.000 16.894 0.206 0.069 43.889 44.149
50.000 -19.088 -0.039 -19.013 -0.044 -19.062 -0.051 -18.737 -0.080 -19.262 -0.085 -17.062 -0.082 -16.610 -0.090 -18.810 -0.178 -17.414 -0.031 -17.419 -0.045 -18.010 -1.100 -17.329 -0.032 -17.427 -0.088 40.000 19.107 0.202 0.075 43.870 44.182
51.000 -19.094 -0.050 -19.012 -0.055 -19.056 -0.064 -18.716 -0.099 -19.242 -0.100 -17.034 -0.085 -16.578 -0.093 -18.802 -0.202 -17.378 -0.034 -17.395 -0.044 -18.019 -1.101 -17.305 -0.032 -17.395 -0.100 40.000 22.805 0.196 0.084 43.847 44.233
52.000 -19.102 -0.065 -19.011 -0.069 -19.046 -0.082 -18.690 -0.123 -19.218 -0.117 -17.005 -0.087 -16.544 -0.095 -18.792 -0.230 -17.339 -0.038 -17.371 -0.043 -18.031 -1.102 -17.282 -0.033 -17.358 -0.115 40.000 28.003 0.191 0.097 43.822 44.296
53.000 -19.111 -0.084 -19.009 -0.087 -19.031 -0.104 -18.660 -0.154 -19.190 -0.138 -16.975 -0.090 -16.510 -0.097 -18.780 -0.263 -17.298 -0.041 -17.345 -0.042 -18.045 -1.104 -17.257 -0.034 -17.315 -0.134 34.895 27.474 0.204 0.119 43.644 44.170
54.000 -19.121 -0.107 -19.006 -0.110 -19.012 -0.132 -18.625 -0.191 -19.159 -0.163 -16.943 -0.091 -16.475 -0.099 -18.765 -0.300 -17.254 -0.045 -17.320 -0.042 -18.061 -1.105 -17.230 -0.035 -17.265 -0.156 6.314 1.353 1.381 0.545 42.334 42.401
55.000 -19.131 -0.134 -19.001 -0.136 -18.987 -0.164 -18.584 -0.233 -19.123 -0.191 -16.909 -0.093 -16.439 -0.100 -18.749 -0.340 -17.208 -0.049 -17.294 -0.041 -18.079 -1.107 -17.203 -0.038 -17.210 -0.183 6.233 1.134 1.393 0.474 42.319 42.318
56.000 -19.141 -0.165 -18.995 -0.166 -18.955 -0.201 -18.539 -0.282 -19.083 -0.223 -16.874 -0.094 -16.402 -0.100 -18.729 -0.385 -17.161 -0.053 -17.268 -0.040 -18.097 -1.110 -17.174 -0.040 -17.147 -0.215 6.139 0.963 1.412 0.422 42.305 42.243
57.000 -19.150 -0.201 -18.987 -0.201 -18.918 -0.243 -18.488 -0.335 -19.039 -0.258 -16.837 -0.095 -16.364 -0.100 -18.707 -0.434 -17.113 -0.058 -17.242 -0.040 -18.116 -1.112 -17.142 -0.043 -17.078 -0.252 6.045 0.832 1.433 0.382 42.291 42.175
58.000 -19.159 -0.242 -18.976 -0.241 -18.874 -0.290 -18.431 -0.395 -18.990 -0.297 -16.799 -0.097 -16.325 -0.099 -18.681 -0.486 -17.064 -0.062 -17.216 -0.040 -18.134 -1.115 -17.109 -0.045 -17.001 -0.295 5.956 0.733 1.452 0.353 42.277 42.117
59.000 -19.166 -0.287 -18.961 -0.285 -18.823 -0.343 -18.368 -0.460 -18.938 -0.340 -16.759 -0.099 -16.285 -0.098 -18.652 -0.542 -17.015 -0.067 -17.190 -0.040 -18.152 -1.118 -17.074 -0.048 -16.917 -0.345 5.871 0.659 1.469 0.331 42.262 42.065
60.000 -19.170 -0.338 -18.944 -0.334 -18.765 -0.400 -18.300 -0.530 -18.881 -0.387 -16.718 -0.102 -16.244 -0.096 -18.619 -0.601 -16.967 -0.071 -17.164 -0.042 -18.168 -1.121 -17.036 -0.050 -16.825 -0.400 5.792 0.604 1.482 0.315 42.246 42.021
61.000 -19.172 -0.393 -18.922 -0.389 -18.699 -0.463 -18.226 -0.606 -18.820 -0.437 -16.676 -0.106 -16.203 -0.094 -18.583 -0.664 -16.919 -0.076 -17.139 -0.045 -18.183 -1.125 -16.995 -0.053 -16.726 -0.461 5.718 0.562 1.490 0.304 42.228 41.981
62.000 -19.171 -0.454 -18.897 -0.448 -18.626 -0.532 -18.146 -0.688 -18.755 -0.491 -16.632 -0.114 -16.161 -0.093 -18.543 -0.729 -16.872 -0.081 -17.115 -0.050 -18.196 -1.130 -16.951 -0.055 -16.620 -0.529 5.628 0.527 1.504 0.297 42.209 41.944
63.000 -19.165 -0.520 -18.866 -0.513 -18.546 -0.606 -18.061 -0.775 -18.686 -0.549 -16.587 -0.124 -16.118 -0.094 -18.499 -0.797 -16.826 -0.086 -17.091 -0.058 -18.206 -1.136 -16.904 -0.059 -16.506 -0.602 5.592 0.507 1.485 0.287 42.187 41.911
64.000 -19.155 -0.591 -18.830 -0.583 -18.457 -0.685 -17.969 -0.866 -18.613 -0.611 -16.541 -0.139 -16.074 -0.099 -18.451 -0.869 -16.783 -0.093 -17.068 -0.068 -18.213 -1.142 -16.854 -0.064 -16.385 -0.682 5.581 0.500 1.452 0.279 42.164 41.884
65.000 -19.140 -0.668 -18.788 -0.658 -18.362 -0.769 -17.873 -0.963 -18.537 -0.676 -16.494 -0.157 -16.030 -0.108 -18.399 -0.942 -16.741 -0.100 -17.045 -0.082 -18.218 -1.150 -16.800 -0.072 -16.258 -0.767 5.599 0.507 1.406 0.273 42.141 41.866
66.000 -19.119 -0.749 -18.741 -0.739 -18.258 -0.858 -17.771 -1.065 -18.457 -0.745 -16.446 -0.181 -15.985 -0.123 -18.343 -1.019 -16.702 -0.108 -17.024 -0.099 -18.218 -1.160 -16.743 -0.083 -16.123 -0.857 5.644 0.532 1.348 0.271 42.119 41.860
67.000 -19.092 -0.836 -18.687 -0.825 -18.148 -0.953 -17.663 -1.171 -18.373 -0.817 -16.397 -0.209 -15.940 -0.144 -18.283 -1.097 -16.665 -0.119 -17.005 -0.118 -18.216 -1.171 -16.681 -0.098 -15.983 -0.953 5.718 0.575 1.282 0.272 42.097 41.864
68.000 -19.058 -0.928 -18.627 -0.916 -18.030 -1.052 -17.551 -1.281 -18.286 -0.893 -16.347 -0.242 -15.894 -0.171 -18.219 -1.178 -16.632 -0.132 -16.986 -0.141 -18.209 -1.185 -16.616 -0.117 -15.836 -1.054 5.819 0.636 1.207 0.275 42.076 41.876
69.000 -19.017 -1.025 -18.560 -1.011 -17.905 -1.156 -17.434 -1.395 -18.196 -0.972 -16.296 -0.281 -15.847 -0.203 -18.152 -1.261 -16.602 -0.147 -16.969 -0.168 -18.199 -1.200 -16.547 -0.141 -15.684 -1.159 5.951 0.719 1.126 0.278 42.054 41.894
70.000 -18.968 -1.126 -18.485 -1.111 -17.773 -1.264 -17.312 -1.512 -18.103 -1.054 -16.244 -0.324 -15.800 -0.242 -18.080 -1.345 -16.575 -0.166 -16.953 -0.197 -18.184 -1.219 -16.474 -0.170 -15.527 -1.269 6.121 0.825 1.039 0.280 42.033 41.916
71.000 -18.911 -1.232 -18.404 -1.216 -17.636 -1.375 -17.186 -1.633 -18.007 -1.140 -16.190 -0.372 -15.753 -0.286 -18.006 -1.431 -16.551 -0.187 -16.938 -0.230 -18.165 -1.241 -16.397 -0.204 -15.365 -1.383 6.339 0.964 0.945 0.280 42.012 41.941
72.000 -18.847 -1.342 -18.315 -1.325 -17.492 -1.491 -17.056 -1.756 -17.908 -1.229 -16.136 -0.425 -15.704 -0.336 -17.927 -1.519 -16.530 -0.212 -16.925 -0.266 -18.142 -1.266 -16.315 -0.244 -15.199 -1.500 6.620 1.146 0.846 0.276 41.991 41.969
73.000 -18.774 -1.455 -18.220 -1.438 -17.342 -1.610 -16.922 -1.881 -17.806 -1.320 -16.081 -0.484 -15.655 -0.391 -17.846 -1.608 -16.513 -0.240 -16.912 -0.305 -18.115 -1.294 -16.230 -0.288 -15.030 -1.620 6.981 1.391 0.745 0.268 41.972 42.003
74.000 -18.692 -1.572 -18.117 -1.554 -17.187 -1.731 -16.785 -2.009 -17.702 -1.414 -16.025 -0.547 -15.605 -0.452 -17.761 -1.697 -16.500 -0.272 -16.902 -0.347 -18.083 -1.326 -16.140 -0.338 -14.858 -1.743 7.449 1.729 0.643 0.256 41.957 42.045
75.000 -18.602 -1.692 -18.006 -1.674 -17.028 -1.855 -16.644 -2.137 -17.595 -1.510 -15.967 -0.616 -15.554 -0.518 -17.674 -1.788 -16.489 -0.306 -16.892 -0.392 -18.047 -1.362 -16.046 -0.394 -14.684 -1.868 8.063 2.214 0.543 0.241 41.949 42.099
76.000 -18.503 -1.815 -17.889 -1.796 -16.864 -1.982 -16.501 -2.267 -17.485 -1.609 -15.908 -0.690 -15.503 -0.590 -17.583 -1.880 -16.481 -0.343 -16.883 -0.440 -18.007 -1.403 -15.949 -0.455 -14.508 -1.995 8.889 2.938 0.449 0.222 41.953 42.171
77.000 -18.396 -1.940 -17.765 -1.921 -16.697 -2.109 -16.356 -2.397 -17.374 -1.710 -15.848 -0.769 -15.450 -0.667 -17.490 -1.972 -16.477 -0.383 -16.874 -0.491 -17.962 -1.447 -15.847 -0.521 -14.331 -2.123 10.037 4.073 0.362 0.202 41.976 42.270
78.000 -18.280 -2.067 -17.634 -2.047 -16.526 -2.238 -16.208 -2.527 -17.260 -1.812 -15.787 -0.853 -15.396 -0.749 -17.395 -2.064 -16.474 -0.425 -16.867 -0.544 -17.913 -1.495 -15.742 -0.593 -14.154 -2.252 11.778 6.021 0.281 0.177 42.035 42.416
79.000 -18.156 -2.195 -17.497 -2.175 -16.353 -2.368 -16.058 -2.657 -17.144 -1.916 -15.724 -0.941 -15.340 -0.836 -17.297 -2.157 -16.474 -0.469 -16.860 -0.599 -17.860 -1.547 -15.633 -0.670 -13.977 -2.382 14.226 9.082 0.216 0.151 42.133 42.597
80.000 -18.024 -2.325 -17.354 -2.304 -16.177 -2.498 -15.907 -2.786 -17.026 -2.022 -15.659 -1.034 -15.284 -0.928 -17.197 -2.250 -16.476 -0.514 -16.852 -0.656 -17.802 -1.603 -15.521 -0.753 -13.801 -2.512 19.116 15.906 0.153 0.119 42.346 42.911
81.000 -17.884 -2.455 -17.205 -2.434 -16.000 -2.628 -15.755 -2.914 -16.906 -2.129 -15.592 -1.132 -15.226 -1.025 -17.095 -2.343 -16.480 -0.561 -16.845 -0.714 -17.741 -1.663 -15.406 -0.841 -13.626 -2.641 23.668 23.073 0.120 0.100 42.506 43.134
82.000 -17.737 -2.584 -17.051 -2.564 -15.821 -2.757 -15.603 -3.041 -16.784 -2.236 -15.524 -1.234 -15.166 -1.127 -16.991 -2.435 -16.485 -0.609 -16.837 -0.774 -17.675 -1.726 -15.288 -0.934 -13.454 -2.769 27.568 29.994 0.100 0.088 42.612 43.283
83.000 -17.583 -2.714 -16.892 -2.694 -15.642 -2.885 -15.449 -3.165 -16.660 -2.345 -15.454 -1.339 -15.105 -1.233 -16.886 -2.527 -16.490 -0.656 -16.829 -0.834 -17.606 -1.792 -15.167 -1.032 -13.284 -2.896 30.731 36.344 0.086 0.079 42.671 43.376
84.000 -17.423 -2.843 -16.729 -2.823 -15.463 -3.012 -15.296 -3.287 -16.535 -2.454 -15.382 -1.449 -15.041 -1.342 -16.779 -2.619 -16.496 -0.704 -16.819 -0.894 -17.533 -1.860 -15.044 -1.135 -13.117 -3.022 33.222 42.040 0.075 0.073 42.694 43.428
85.000 -17.257 -2.970 -16.562 -2.950 -15.284 -3.137 -15.143 -3.406 -16.408 -2.563 -15.308 -1.562 -14.976 -1.456 -16.671 -2.710 -16.502 -0.750 -16.809 -0.954 -17.456 -1.931 -14.919 -1.242 -12.954 -3.145 35.178 47.193 0.067 0.068 42.692 43.450
86.000 -17.085 -3.096 -16.391 -3.077 -15.107 -3.260 -14.991 -3.523 -16.279 -2.672 -15.232 -1.677 -14.909 -1.572 -16.561 -2.800 -16.507 -0.796 -16.796 -1.014 -17.375 -2.004 -14.793 -1.353 -12.794 -3.267 36.649 51.709 0.060 0.064 42.669 43.449
87.000 -16.909 -3.220 -16.218 -3.201 -14.930 -3.381 -14.839 -3.636 -16.150 -2.781 -15.154 -1.796 -14.841 -1.692 -16.451 -2.889 -16.511 -0.839 -16.782 -1.072 -17.292 -2.078 -14.664 -1.467 -12.640 -3.385 37.699 55.532 0.054 0.060 42.630 43.429
88.000 -16.728 -3.342 -16.042 -3.323 -14.755 -3.498 -14.689 -3.746 -16.019 -2.889 -15.074 -1.917 -14.770 -1.814 -16.339 -2.976 -16.514 -0.880 -16.766 -1.129 -17.205 -2.153 -14.535 -1.585 -12.490 -3.501 38.369 58.556 0.050 0.056 42.579 43.393
89.000 -16.544 -3.460 -15.865 -3.442 -14.583 -3.613 -14.540 -3.851 -15.886 -2.996 -14.992 -2.040 -14.697 -1.939 -16.227 -3.063 -16.515 -0.918 -16.747 -1.184 -17.114 -2.229 -14.405 -1.707 -12.346 -3.613 38.685 60.655 0.045 0.053 42.517 43.343
90.000 -16.357 -3.576 -15.686 -3.559 -14.413 -3.724 -14.393 -3.954 -15.753 -3.103 -14.907 -2.164 -14.622 -2.065 -16.113 -3.147 -16.514 -0.953 -16.725 -1.237 -17.021 -2.305 -14.275 -1.830 -12.207 -3.722 38.660 61.710 0.042 0.050 42.447 43.281
91.000 -16.168 -3.689 -15.506 -3.672 -14.246 -3.831 -14.247 -4.051 -15.619 -3.208 -14.821 -2.289 -14.545 -2.193 -16.000 -3.230 -16.510 -0.983 -16.700 -1.286 -16.925 -2.380 -14.144 -1.956 -12.074 -3.827 38.311 61.655 0.039 0.048 42.369 43.207
92.000 -15.976 -3.798 -15.327 -3.781 -14.082 -3.934 -14.104 -4.145 -15.484 -3.312 -14.733 -2.415 -14.466 -2.321 -15.885 -3.311 -16.503 -1.009 -16.672 -1.333 -16.826 -2.455 -14.014 -2.084 -11.947 -3.928 37.663 60.513 0.037 0.045 42.284 43.122
93.000 -15.784 -3.903 -15.147 -3.887 -13.922 -4.034 -13.963 -4.235 -15.349 -3.414 -14.642 -2.542 -14.385 -2.450 -15.771 -3.391 -16.492 -1.029 -16.641 -1.376 -16.725 -2.529 -13.884 -2.213 -11.826 -4.026 36.748 58.384 0.035 0.043 42.193 43.027
94.000 -15.592 -4.004 -14.969 -3.989 -13.765 -4.129 -13.825 -4.320 -15.213 -3.514 -14.550 -2.668 -14.303 -2.579 -15.656 -3.468 -16.478 -1.044 -16.606 -1.415 -16.621 -2.602 -13.755 -2.342 -11.711 -4.119 35.621 55.486 0.033 0.041 42.099 42.925
95.000 -15.399 -4.101 -14.791 -4.086 -13.613 -4.220 -13.690 -4.401 -15.077 -3.612 -14.456 -2.793 -14.218 -2.707 -15.541 -3.543 -16.459 -1.053 -16.567 -1.449 -16.515 -2.673 -13.628 -2.472 -11.603 -4.208 34.320 52.002 0.032 0.039 42.001 42.817
96.000 -15.207 -4.193 -14.616 -4.180 -13.465 -4.306 -13.558 -4.477 -14.941 -3.708 -14.361 -2.918 -14.132 -2.835 -15.426 -3.615 -16.437 -1.055 -16.524 -1.480 -16.407 -2.743 -13.501 -2.603 -11.502 -4.293 32.926 48.266 0.031 0.038 41.902 42.705
97.000 -15.017 -4.282 -14.443 -4.269 -13.321 -4.389 -13.428 -4.549 -14.805 -3.802 -14.264 -3.041 -14.045 -2.961 -15.311 -3.685 -16.409 -1.050 -16.476 -1.506 -16.297 -2.810 -13.377 -2.732 -11.406 -4.374 31.449 44.369 0.030 0.037 41.802 42.591
98.000 -14.828 -4.365 -14.272 -4.353 -13.183 -4.466 -13.303 -4.617 -14.669 -3.892 -14.166 -3.163 -13.956 -3.086 -15.196 -3.753 -16.377 -1.038 -16.425 -1.528 -16.185 -2.875 -13.255 -2.861 -11.318 -4.450 29.924 40.471 0.030 0.036 41.703 42.475
99.000 -14.642 -4.445 -14.104 -4.433 -13.048 -4.540 -13.180 -4.680 -14.534 -3.980 -14.066 -3.283 -13.866 -3.209 -15.081 -3.818 -16.340 -1.018 -16.369 -1.545 -16.071 -2.937 -13.135 -2.988 -11.235 -4.523 28.390 36.718 0.029 0.035 41.604 42.359
100.000 -14.458 -4.520 -13.940 -4.509 -12.919 -4.608 -13.061 -4.739 -14.399 -4.066 -13.966 -3.400 -13.775 -3.329 -14.967 -3.880 -16.298 -0.991 -16.309 -1.558 -15.956 -2.997 -13.018 -3.114 -11.159 -4.590 26.873 33.213 0.029 0.034 41.508 42.246
101.000 -14.278 -4.590 -13.780 -4.580 -12.795 -4.673 -12.946 -4.794 -14.265 -4.148 -13.865 -3.514 -13.683 -3.447 -14.853 -3.940 -16.251 -0.955 -16.244 -1.567 -15.840 -3.055 -12.903 -3.237 -11.089 -4.654 25.394 30.012 0.030 0.034 41.415 42.136
102.000 -14.102 -4.656 -13.623 -4.647 -12.675 -4.733 -12.834 -4.845 -14.133 -4.227 -13.763 -3.626 -13.590 -3.562 -14.740 -3.997 -16.198 -0.912 -16.176 -1.572 -15.723 -3.110 -12.792 -3.358 -11.025 -4.714 23.961 27.137 0.030 0.034 41.325 42.031
103.000 -13.929 -4.718 -13.471 -4.709 -12.561 -4.789 -12.726 -4.893 -14.001 -4.303 -13.662 -3.734 -13.497 -3.673 -14.627 -4.052 -16.141 -0.861 -16.103 -1.574 -15.605 -3.162 -12.683 -3.476 -10.967 -4.769 22.575 24.582 0.031 0.035 41.240 41.931
104.000 -13.761 -4.775 -13.323 -4.767 -12.452 -4.841 -12.621 -4.936 -13.872 -4.376 -13.560 -3.839 -13.404 -3.781 -14.515 -4.104 -16.078 -0.802 -16.025 -1.574 -15.486 -3.212 -12.578 -3.591 -10.914 -4.821 21.656 23.332 0.031 0.036 41.174 41.864
105.000 -13.598 -4.828 -13.180 -4.821 -12.347 -4.889 -12.521 -4.976 -13.744 -4.445 -13.458 -3.940 -13.311 -3.886 -14.404 -4.154 -16.011 -0.735 -15.944 -1.572 -15.367 -3.259 -12.477 -3.703 -10.867 -4.869 20.474 21.609 0.032 0.037 41.103 41.787
106.000 -13.440 -4.878 -13.042 -4.871 -12.248 -4.934 -12.424 -5.013 -13.617 -4.512 -13.356 -4.037 -13.217 -3.986 -14.293 -4.201 -15.939 -0.662 -15.859 -1.569 -15.247 -3.304 -12.379 -3.811 -10.824 -4.914 19.113 19.640 0.034 0.040 41.031 41.707
107.000 -13.287 -4.923 -12.909 -4.917 -12.153 -4.974 -12.331 -5.047 -13.493 -4.575 -13.255 -4.130 -13.125 -4.083 -14.184 -4.246 -15.861 -0.581 -15.770 -1.566 -15.127 -3.348 -12.284 -3.915 -10.787 -4.955 17.586 17.485 0.037 0.044 40.961 41.627
108.000 -13.139 -4.965 -12.781 -4.959 -12.063 -5.012 -12.242 -5.077 -13.371 -4.634 -13.155 -4.220 -13.032 -4.175 -14.076 -4.288 -15.780 -0.496 -15.678 -1.564 -15.007 -3.389 -12.194 -4.015 -10.754 -4.992 15.959 15.305 0.041 0.049 40.900 41.554
109.000 -12.996 -5.003 -12.658 -4.998 -11.978 -5.046 -12.156 -5.105 -13.252 -4.690 -13.056 -4.305 -12.941 -4.263 -13.969 -4.328 -15.694 -0.408 -15.582 -1.565 -14.887 -3.429 -12.107 -4.111 -10.726 -5.027 14.570 13.622 0.048 0.057 40.868 41.515
110.000 -12.860 -5.038 -12.540 -5.034 -11.897 -5.077 -12.075 -5.130 -13.135 -4.744 -12.958 -4.385 -12.850 -4.346 -13.864 -4.367 -15.604 -0.323 -15.484 -1.570 -14.768 -3.467 -12.024 -4.203 -10.702 -5.059 13.231 11.788 0.058 0.068 40.872 41.501
111.000 -12.729 -5.070 -12.428 -5.066 -11.821 -5.105 -11.997 -5.152 -13.021 -4.793 -12.862 -4.462 -12.761 -4.425 -13.759 -4.403 -15.510 -0.252 -15.382 -1.580 -14.649 -3.505 -11.945 -4.290 -10.681 -5.087 12.147 9.894 0.073 0.079 40.921 41.513
112.000 -12.603 -5.099 -12.321 -5.095 -11.749 -5.130 -11.922 -5.173 -12.910 -4.840 -12.767 -4.534 -12.673 -4.500 -13.657 -4.438 -15.412 -0.224 -15.278 -1.596 -14.531 -3.542 -11.869 -4.373 -10.664 -5.113 11.560 8.597 0.084 0.083 40.951 41.505
113.000 -12.484 -5.125 -12.219 -5.122 -11.682 -5.153 -11.852 -5.191 -12.801 -4.884 -12.674 -4.602 -12.587 -4.570 -13.555 -4.470 -15.312 -0.261 -15.171 -1.620 -14.413 -3.578 -11.798 -4.451 -10.651 -5.137 11.584 8.476 0.076 0.076 40.873 41.422
