"Time (MJD)" PAN-STARRS/PS1.g PAN-STARRS/PS1.g_err PAN-STARRS/PS1.i PAN-STARRS/PS1.i_err PAN-STARRS/PS1.r PAN-STARRS/PS1.r_err PAN-STARRS/PS1.z PAN-STARRS/PS1.z_err Palomar/ZTF.g Palomar/ZTF.g_err Palomar/ZTF.r Palomar/ZTF.r_err SLOAN/SDSS.gprime_filter SLOAN/SDSS.gprime_filter_err SLOAN/SDSS.iprime_filter SLOAN/SDSS.iprime_filter_err SLOAN/SDSS.rprime_filter SLOAN/SDSS.rprime_filter_err "Temp./1e3 (K)" "Temp. Err." "Radius/1e15 (cm)" "Radius Err." "Log10(Bol. Lum)" "Log10(Bol. Err)"
17.000 -16.853 -0.049 -16.854 -0.049 -16.884 -0.048 -17.181 -0.048 -17.182 -0.047 -17.183 -0.047 -17.063 -0.062 -17.041 -0.065 -16.955 -0.092 7.274 0.259 1.035 0.067 42.330 41.614
18.000 -16.846 -0.035 -16.846 -0.035 -16.876 -0.034 -17.181 -0.034 -17.183 -0.034 -17.185 -0.034 -17.067 -0.044 -17.046 -0.046 -16.968 -0.067 7.206 0.253 1.052 0.067 42.328 41.607
19.000 -16.831 -0.026 -16.832 -0.026 -16.862 -0.025 -17.175 -0.025 -17.177 -0.025 -17.180 -0.025 -17.066 -0.031 -17.046 -0.032 -16.975 -0.049 7.169 0.250 1.057 0.067 42.323 41.599
20.000 -16.812 -0.022 -16.813 -0.022 -16.843 -0.021 -17.165 -0.020 -17.168 -0.020 -17.171 -0.021 -17.062 -0.023 -17.042 -0.024 -16.977 -0.036 7.147 0.249 1.056 0.066 42.317 41.590
21.000 -16.791 -0.021 -16.791 -0.021 -16.821 -0.020 -17.154 -0.018 -17.156 -0.018 -17.161 -0.019 -17.056 -0.019 -17.037 -0.019 -16.976 -0.030 7.119 0.247 1.057 0.066 42.310 41.580
22.000 -16.768 -0.020 -16.769 -0.020 -16.800 -0.019 -17.142 -0.017 -17.145 -0.017 -17.150 -0.019 -17.051 -0.018 -17.032 -0.018 -16.975 -0.028 7.057 0.243 1.066 0.066 42.303 41.569
23.000 -16.747 -0.019 -16.747 -0.019 -16.778 -0.019 -17.130 -0.016 -17.134 -0.016 -17.141 -0.018 -17.047 -0.017 -17.029 -0.018 -16.973 -0.028 6.978 0.236 1.082 0.066 42.296 41.558
24.000 -16.727 -0.019 -16.727 -0.019 -16.758 -0.018 -17.121 -0.016 -17.125 -0.016 -17.133 -0.018 -17.045 -0.017 -17.027 -0.017 -16.972 -0.027 6.897 0.229 1.100 0.067 42.290 41.546
25.000 -16.708 -0.018 -16.708 -0.018 -16.739 -0.018 -17.112 -0.016 -17.117 -0.016 -17.126 -0.018 -17.044 -0.017 -17.026 -0.017 -16.972 -0.026 6.823 0.222 1.116 0.068 42.284 41.534
26.000 -16.690 -0.018 -16.690 -0.018 -16.722 -0.018 -17.105 -0.016 -17.110 -0.016 -17.120 -0.018 -17.044 -0.017 -17.026 -0.018 -16.972 -0.025 6.757 0.216 1.132 0.068 42.279 41.524
27.000 -16.673 -0.018 -16.673 -0.018 -16.705 -0.018 -17.099 -0.016 -17.104 -0.016 -17.115 -0.018 -17.044 -0.017 -17.027 -0.018 -16.973 -0.023 6.704 0.213 1.144 0.069 42.275 41.517
28.000 -16.655 -0.018 -16.656 -0.018 -16.688 -0.017 -17.093 -0.016 -17.098 -0.016 -17.110 -0.018 -17.044 -0.017 -17.027 -0.017 -16.974 -0.022 6.649 0.210 1.157 0.070 42.271 41.512
29.000 -16.637 -0.017 -16.638 -0.017 -16.671 -0.017 -17.086 -0.016 -17.092 -0.016 -17.105 -0.018 -17.043 -0.017 -17.026 -0.017 -16.975 -0.021 6.594 0.208 1.170 0.071 42.266 41.508
30.000 -16.619 -0.017 -16.619 -0.017 -16.653 -0.016 -17.079 -0.015 -17.085 -0.015 -17.099 -0.017 -17.040 -0.016 -17.023 -0.017 -16.974 -0.020 6.531 0.205 1.186 0.072 42.261 41.503
31.000 -16.599 -0.017 -16.599 -0.017 -16.634 -0.016 -17.072 -0.015 -17.078 -0.015 -17.092 -0.017 -17.036 -0.016 -17.019 -0.017 -16.973 -0.019 6.481 0.203 1.197 0.073 42.256 41.499
32.000 -16.577 -0.017 -16.578 -0.017 -16.614 -0.015 -17.064 -0.015 -17.070 -0.015 -17.085 -0.017 -17.030 -0.016 -17.014 -0.017 -16.970 -0.019 6.418 0.202 1.213 0.075 42.250 41.496
33.000 -16.555 -0.017 -16.555 -0.017 -16.593 -0.015 -17.056 -0.016 -17.062 -0.015 -17.077 -0.017 -17.023 -0.016 -17.007 -0.017 -16.966 -0.019 6.370 0.203 1.223 0.077 42.244 41.497
34.000 -16.531 -0.017 -16.532 -0.017 -16.571 -0.015 -17.048 -0.016 -17.055 -0.016 -17.070 -0.018 -17.014 -0.016 -16.998 -0.018 -16.961 -0.019 6.308 0.205 1.239 0.080 42.239 41.503
35.000 -16.508 -0.018 -16.508 -0.018 -16.549 -0.016 -17.041 -0.017 -17.048 -0.017 -17.063 -0.018 -17.006 -0.017 -16.990 -0.019 -16.955 -0.021 6.262 0.211 1.249 0.085 42.233 41.514
36.000 -16.484 -0.020 -16.484 -0.020 -16.526 -0.017 -17.034 -0.018 -17.041 -0.018 -17.057 -0.019 -16.997 -0.018 -16.981 -0.020 -16.949 -0.022 6.209 0.217 1.263 0.090 42.228 41.527
37.000 -16.460 -0.021 -16.460 -0.021 -16.504 -0.019 -17.027 -0.019 -17.034 -0.019 -17.050 -0.020 -16.988 -0.020 -16.971 -0.021 -16.942 -0.024 6.156 0.224 1.278 0.095 42.223 41.541
38.000 -16.435 -0.022 -16.436 -0.022 -16.481 -0.020 -17.020 -0.020 -17.027 -0.020 -17.043 -0.021 -16.978 -0.021 -16.962 -0.022 -16.935 -0.026 6.103 0.230 1.292 0.101 42.218 41.554
39.000 -16.411 -0.023 -16.412 -0.023 -16.458 -0.021 -17.011 -0.021 -17.018 -0.020 -17.035 -0.021 -16.968 -0.022 -16.952 -0.023 -16.927 -0.027 6.052 0.236 1.306 0.106 42.213 41.565
40.000 -16.386 -0.023 -16.387 -0.023 -16.434 -0.021 -17.000 -0.021 -17.008 -0.021 -17.025 -0.021 -16.958 -0.022 -16.941 -0.024 -16.918 -0.028 6.003 0.240 1.320 0.111 42.207 41.572
41.000 -16.361 -0.023 -16.362 -0.023 -16.410 -0.022 -16.987 -0.021 -16.995 -0.020 -17.012 -0.021 -16.946 -0.022 -16.929 -0.024 -16.909 -0.029 5.959 0.243 1.331 0.114 42.202 41.576
42.000 -16.335 -0.024 -16.336 -0.024 -16.386 -0.022 -16.972 -0.020 -16.980 -0.020 -16.997 -0.021 -16.932 -0.022 -16.916 -0.024 -16.899 -0.029 5.918 0.244 1.339 0.117 42.195 41.575
43.000 -16.309 -0.024 -16.310 -0.024 -16.360 -0.022 -16.954 -0.020 -16.962 -0.020 -16.979 -0.021 -16.918 -0.022 -16.903 -0.023 -16.889 -0.029 5.883 0.242 1.344 0.117 42.188 41.569
44.000 -16.282 -0.024 -16.283 -0.024 -16.334 -0.022 -16.934 -0.020 -16.942 -0.020 -16.960 -0.021 -16.903 -0.022 -16.888 -0.023 -16.877 -0.029 5.849 0.238 1.348 0.117 42.181 41.557
45.000 -16.255 -0.024 -16.256 -0.024 -16.307 -0.022 -16.912 -0.020 -16.921 -0.020 -16.940 -0.021 -16.888 -0.022 -16.873 -0.023 -16.865 -0.028 5.823 0.233 1.347 0.115 42.172 41.543
46.000 -16.228 -0.024 -16.229 -0.024 -16.281 -0.022 -16.891 -0.020 -16.899 -0.020 -16.919 -0.022 -16.872 -0.021 -16.859 -0.022 -16.852 -0.028 5.796 0.228 1.347 0.113 42.164 41.527
47.000 -16.201 -0.024 -16.201 -0.024 -16.253 -0.022 -16.870 -0.020 -16.878 -0.020 -16.899 -0.021 -16.857 -0.021 -16.844 -0.022 -16.839 -0.027 5.767 0.224 1.348 0.112 42.156 41.514
48.000 -16.171 -0.024 -16.172 -0.023 -16.224 -0.021 -16.849 -0.019 -16.858 -0.019 -16.879 -0.021 -16.842 -0.021 -16.829 -0.021 -16.825 -0.025 5.735 0.222 1.350 0.113 42.148 41.505
49.000 -16.139 -0.023 -16.139 -0.023 -16.192 -0.020 -16.828 -0.018 -16.838 -0.018 -16.860 -0.020 -16.826 -0.020 -16.813 -0.021 -16.808 -0.023 5.698 0.223 1.355 0.115 42.139 41.502
50.000 -16.101 -0.022 -16.101 -0.022 -16.155 -0.020 -16.807 -0.017 -16.816 -0.017 -16.839 -0.019 -16.808 -0.019 -16.795 -0.020 -16.789 -0.022 5.655 0.226 1.361 0.118 42.130 41.504
51.000 -16.054 -0.021 -16.055 -0.021 -16.110 -0.019 -16.781 -0.016 -16.791 -0.016 -16.816 -0.018 -16.785 -0.018 -16.772 -0.019 -16.765 -0.020 5.603 0.232 1.369 0.124 42.119 41.509
52.000 -15.997 -0.021 -15.998 -0.021 -16.053 -0.019 -16.749 -0.016 -16.760 -0.016 -16.785 -0.018 -16.755 -0.017 -16.741 -0.019 -16.734 -0.020 5.539 0.238 1.379 0.131 42.105 41.513
53.000 -15.924 -0.021 -15.925 -0.021 -15.982 -0.019 -16.706 -0.016 -16.718 -0.016 -16.745 -0.018 -16.714 -0.017 -16.699 -0.019 -16.694 -0.021 5.460 0.243 1.390 0.138 42.087 41.514
54.000 -15.834 -0.022 -15.835 -0.021 -15.894 -0.020 -16.650 -0.016 -16.662 -0.016 -16.690 -0.018 -16.659 -0.017 -16.643 -0.019 -16.641 -0.022 5.372 0.248 1.398 0.146 42.064 41.510
55.000 -15.724 -0.023 -15.725 -0.023 -15.785 -0.021 -16.576 -0.017 -16.588 -0.017 -16.618 -0.019 -16.586 -0.018 -16.570 -0.019 -16.575 -0.024 5.279 0.253 1.399 0.154 42.035 41.500
56.000 -15.592 -0.025 -15.593 -0.025 -15.656 -0.023 -16.482 -0.018 -16.495 -0.018 -16.527 -0.020 -16.494 -0.019 -16.478 -0.020 -16.493 -0.027 5.188 0.257 1.389 0.160 41.998 41.482
57.000 -15.441 -0.027 -15.442 -0.027 -15.506 -0.025 -16.368 -0.020 -16.382 -0.019 -16.416 -0.021 -16.383 -0.021 -16.366 -0.022 -16.395 -0.029 5.100 0.259 1.366 0.164 41.954 41.452
58.000 -15.272 -0.030 -15.273 -0.030 -15.339 -0.028 -16.236 -0.022 -16.251 -0.022 -16.286 -0.023 -16.253 -0.023 -16.236 -0.024 -16.281 -0.032 5.014 0.258 1.332 0.165 41.903 41.410
59.000 -15.090 -0.033 -15.091 -0.033 -15.158 -0.031 -16.089 -0.024 -16.104 -0.024 -16.141 -0.026 -16.108 -0.026 -16.091 -0.027 -16.154 -0.035 4.930 0.254 1.290 0.163 41.845 41.358
60.000 -14.902 -0.036 -14.903 -0.036 -14.971 -0.034 -15.932 -0.028 -15.948 -0.028 -15.987 -0.029 -15.952 -0.029 -15.936 -0.029 -16.016 -0.041 4.848 0.248 1.243 0.159 41.784 41.299
61.000 -14.715 -0.039 -14.716 -0.039 -14.785 -0.036 -15.772 -0.032 -15.789 -0.031 -15.829 -0.032 -15.792 -0.032 -15.776 -0.033 -15.872 -0.049 4.773 0.242 1.195 0.155 41.723 41.241
62.000 -14.538 -0.041 -14.539 -0.041 -14.609 -0.038 -15.618 -0.035 -15.636 -0.035 -15.677 -0.036 -15.636 -0.035 -15.619 -0.036 -15.727 -0.060 4.709 0.239 1.147 0.152 41.664 41.188
63.000 -14.378 -0.042 -14.379 -0.042 -14.449 -0.039 -15.479 -0.038 -15.496 -0.038 -15.538 -0.039 -15.490 -0.039 -15.472 -0.039 -15.587 -0.074 4.659 0.238 1.101 0.151 41.609 41.143
64.000 -14.242 -0.042 -14.244 -0.042 -14.314 -0.039 -15.360 -0.040 -15.378 -0.039 -15.420 -0.040 -15.362 -0.041 -15.342 -0.042 -15.455 -0.090 4.621 0.241 1.060 0.151 41.562 41.109
65.000 -14.137 -0.041 -14.138 -0.041 -14.210 -0.038 -15.269 -0.040 -15.287 -0.040 -15.330 -0.041 -15.258 -0.043 -15.234 -0.044 -15.338 -0.106 4.595 0.246 1.027 0.153 41.525 41.090
66.000 -14.064 -0.040 -14.066 -0.039 -14.138 -0.036 -15.209 -0.039 -15.227 -0.039 -15.269 -0.040 -15.180 -0.044 -15.153 -0.045 -15.237 -0.124 4.578 0.255 1.005 0.158 41.500 41.086
67.000 -14.025 -0.038 -14.026 -0.038 -14.099 -0.035 -15.180 -0.037 -15.198 -0.037 -15.240 -0.038 -15.132 -0.044 -15.099 -0.045 -15.154 -0.142 4.571 0.268 0.993 0.165 41.487 41.096
68.000 -14.017 -0.037 -14.018 -0.037 -14.092 -0.035 -15.181 -0.036 -15.199 -0.035 -15.240 -0.037 -15.110 -0.044 -15.072 -0.045 -15.090 -0.159 4.580 0.286 0.985 0.174 41.483 41.119
69.000 -14.035 -0.040 -14.036 -0.039 -14.111 -0.038 -15.206 -0.036 -15.224 -0.036 -15.265 -0.038 -15.113 -0.045 -15.068 -0.046 -15.043 -0.176 4.618 0.309 0.970 0.181 41.484 41.146
70.000 -14.073 -0.045 -14.074 -0.045 -14.149 -0.044 -15.250 -0.041 -15.268 -0.041 -15.308 -0.043 -15.133 -0.049 -15.082 -0.050 -15.010 -0.192 4.641 0.327 0.970 0.187 41.493 41.172
71.000 -14.122 -0.054 -14.123 -0.054 -14.199 -0.053 -15.302 -0.049 -15.320 -0.049 -15.360 -0.050 -15.165 -0.055 -15.108 -0.055 -14.987 -0.207 4.762 0.355 0.919 0.183 41.491 41.188
72.000 -14.174 -0.064 -14.175 -0.064 -14.252 -0.063 -15.355 -0.058 -15.373 -0.058 -15.413 -0.060 -15.201 -0.063 -15.138 -0.063 -14.970 -0.220 4.833 0.374 0.899 0.182 41.497 41.205
73.000 -14.222 -0.073 -14.223 -0.073 -14.299 -0.072 -15.399 -0.068 -15.417 -0.068 -15.456 -0.069 -15.233 -0.071 -15.165 -0.071 -14.955 -0.232 4.897 0.390 0.883 0.182 41.504 41.220
74.000 -14.257 -0.079 -14.259 -0.079 -14.335 -0.079 -15.427 -0.075 -15.444 -0.075 -15.484 -0.076 -15.254 -0.077 -15.182 -0.077 -14.937 -0.241 4.951 0.401 0.868 0.180 41.508 41.229
75.000 -14.277 -0.083 -14.278 -0.083 -14.353 -0.082 -15.432 -0.079 -15.449 -0.078 -15.489 -0.079 -15.259 -0.080 -15.185 -0.080 -14.914 -0.248 4.993 0.407 0.853 0.176 41.508 41.229
76.000 -14.276 -0.081 -14.277 -0.081 -14.351 -0.081 -15.411 -0.078 -15.428 -0.077 -15.468 -0.078 -15.245 -0.079 -15.170 -0.079 -14.883 -0.252 5.022 0.405 0.837 0.170 41.502 41.217
77.000 -14.256 -0.076 -14.257 -0.075 -14.328 -0.075 -15.363 -0.072 -15.380 -0.072 -15.421 -0.073 -15.210 -0.074 -15.137 -0.073 -14.844 -0.254 5.038 0.395 0.820 0.162 41.489 41.191
78.000 -14.217 -0.066 -14.218 -0.066 -14.286 -0.066 -15.289 -0.062 -15.307 -0.062 -15.347 -0.063 -15.155 -0.065 -15.085 -0.063 -14.796 -0.255 5.050 0.379 0.799 0.150 41.471 41.153
79.000 -14.164 -0.058 -14.165 -0.058 -14.229 -0.058 -15.194 -0.053 -15.211 -0.052 -15.252 -0.054 -15.083 -0.056 -15.017 -0.055 -14.743 -0.256 5.070 0.362 0.769 0.137 41.445 41.103
80.000 -14.100 -0.062 -14.101 -0.062 -14.161 -0.061 -15.082 -0.055 -15.099 -0.055 -15.141 -0.056 -14.998 -0.059 -14.936 -0.058 -14.686 -0.259 5.116 0.343 0.726 0.120 41.410 41.039
81.000 -14.033 -0.083 -14.034 -0.083 -14.089 -0.081 -14.961 -0.076 -14.978 -0.076 -15.019 -0.077 -14.904 -0.079 -14.849 -0.079 -14.628 -0.266 5.194 0.322 0.670 0.101 41.367 40.958
82.000 -13.968 -0.117 -13.969 -0.117 -14.019 -0.116 -14.837 -0.111 -14.853 -0.111 -14.894 -0.112 -14.808 -0.113 -14.760 -0.114 -14.572 -0.279 5.301 0.302 0.611 0.083 41.322 40.872
83.000 -13.910 -0.160 -13.911 -0.160 -13.956 -0.158 -14.717 -0.154 -14.733 -0.154 -14.772 -0.154 -14.716 -0.156 -14.674 -0.157 -14.522 -0.298 5.418 0.278 0.557 0.067 41.281 40.780
84.000 -13.866 -0.207 -13.866 -0.207 -13.906 -0.205 -14.607 -0.201 -14.622 -0.201 -14.660 -0.202 -14.631 -0.204 -14.596 -0.205 -14.480 -0.323 5.535 0.248 0.513 0.052 41.245 40.678
85.000 -13.837 -0.256 -13.837 -0.256 -13.872 -0.255 -14.512 -0.251 -14.526 -0.251 -14.563 -0.251 -14.558 -0.253 -14.530 -0.255 -14.449 -0.353 5.648 0.210 0.477 0.040 41.217 40.565
86.000 -13.827 -0.305 -13.827 -0.305 -13.858 -0.304 -14.435 -0.301 -14.449 -0.301 -14.484 -0.301 -14.500 -0.303 -14.478 -0.304 -14.429 -0.386 5.762 0.169 0.448 0.029 41.197 40.437
87.000 -13.836 -0.353 -13.837 -0.353 -13.863 -0.352 -14.380 -0.349 -14.393 -0.349 -14.426 -0.349 -14.458 -0.351 -14.442 -0.353 -14.421 -0.419 5.883 0.127 0.424 0.019 41.186 40.285
88.000 -13.865 -0.399 -13.865 -0.399 -13.887 -0.398 -14.346 -0.395 -14.357 -0.395 -14.388 -0.395 -14.434 -0.397 -14.423 -0.398 -14.424 -0.453 6.015 0.085 0.404 0.012 41.182 40.092
89.000 -13.911 -0.440 -13.911 -0.440 -13.929 -0.440 -14.332 -0.437 -14.343 -0.437 -14.371 -0.437 -14.426 -0.439 -14.419 -0.440 -14.439 -0.484 6.160 0.048 0.387 0.006 41.186 39.834
90.000 -13.972 -0.478 -13.972 -0.478 -13.987 -0.477 -14.337 -0.475 -14.347 -0.475 -14.372 -0.475 -14.433 -0.477 -14.429 -0.478 -14.464 -0.512 6.317 0.034 0.372 0.004 41.197 39.677
91.000 -14.045 -0.510 -14.045 -0.510 -14.057 -0.510 -14.358 -0.508 -14.367 -0.508 -14.390 -0.508 -14.453 -0.510 -14.452 -0.511 -14.496 -0.538 6.484 0.057 0.360 0.006 41.214 39.904
92.000 -14.126 -0.538 -14.126 -0.538 -14.135 -0.538 -14.392 -0.536 -14.400 -0.536 -14.420 -0.536 -14.483 -0.538 -14.484 -0.538 -14.534 -0.559 6.659 0.090 0.351 0.009 41.236 40.105
93.000 -14.211 -0.561 -14.211 -0.561 -14.219 -0.561 -14.436 -0.560 -14.442 -0.560 -14.460 -0.560 -14.521 -0.561 -14.523 -0.561 -14.575 -0.577 6.838 0.121 0.343 0.011 41.262 40.247
94.000 -14.299 -0.580 -14.299 -0.580 -14.305 -0.579 -14.486 -0.579 -14.491 -0.579 -14.507 -0.579 -14.564 -0.580 -14.567 -0.580 -14.618 -0.592 7.018 0.151 0.336 0.013 41.291 40.353
95.000 -14.385 -0.594 -14.385 -0.594 -14.389 -0.594 -14.539 -0.594 -14.544 -0.594 -14.557 -0.594 -14.609 -0.594 -14.612 -0.595 -14.662 -0.603 7.195 0.176 0.331 0.014 41.320 40.436
96.000 -14.467 -0.606 -14.467 -0.606 -14.471 -0.606 -14.593 -0.605 -14.597 -0.605 -14.608 -0.605 -14.655 -0.606 -14.658 -0.606 -14.704 -0.612 7.366 0.199 0.327 0.015 41.350 40.504
97.000 -14.544 -0.614 -14.544 -0.614 -14.546 -0.614 -14.646 -0.614 -14.649 -0.614 -14.658 -0.614 -14.699 -0.614 -14.702 -0.614 -14.743 -0.619 7.527 0.218 0.323 0.016 41.379 40.559
98.000 -14.613 -0.620 -14.613 -0.620 -14.615 -0.620 -14.695 -0.620 -14.698 -0.620 -14.705 -0.620 -14.740 -0.620 -14.743 -0.621 -14.779 -0.624 7.676 0.233 0.321 0.016 41.406 40.604
99.000 -14.675 -0.625 -14.675 -0.625 -14.677 -0.625 -14.740 -0.625 -14.742 -0.625 -14.748 -0.625 -14.778 -0.625 -14.781 -0.625 -14.812 -0.627 7.810 0.245 0.319 0.016 41.430 40.641
100.000 -14.729 -0.628 -14.729 -0.628 -14.730 -0.628 -14.780 -0.628 -14.782 -0.628 -14.787 -0.628 -14.811 -0.628 -14.814 -0.628 -14.840 -0.629 7.930 0.255 0.317 0.016 41.452 40.671
101.000 -14.776 -0.630 -14.776 -0.630 -14.776 -0.630 -14.815 -0.630 -14.816 -0.630 -14.820 -0.630 -14.840 -0.630 -14.842 -0.630 -14.864 -0.631 8.033 0.262 0.316 0.016 41.471 40.694
102.000 -14.814 -0.631 -14.814 -0.631 -14.815 -0.631 -14.845 -0.631 -14.846 -0.631 -14.849 -0.631 -14.865 -0.631 -14.866 -0.631 -14.884 -0.632 8.122 0.268 0.315 0.016 41.488 40.713
103.000 -14.846 -0.632 -14.846 -0.632 -14.846 -0.632 -14.869 -0.632 -14.870 -0.632 -14.872 -0.632 -14.885 -0.632 -14.886 -0.632 -14.900 -0.633 8.195 0.272 0.314 0.016 41.501 40.728
104.000 -14.872 -0.633 -14.872 -0.633 -14.872 -0.633 -14.889 -0.633 -14.890 -0.633 -14.892 -0.633 -14.901 -0.633 -14.903 -0.633 -14.914 -0.633 8.256 0.275 0.313 0.016 41.512 40.739
105.000 -14.892 -0.633 -14.892 -0.633 -14.892 -0.633 -14.905 -0.633 -14.906 -0.633 -14.907 -0.633 -14.914 -0.633 -14.915 -0.633 -14.924 -0.633 8.305 0.277 0.313 0.016 41.521 40.748
106.000 -14.908 -0.633 -14.908 -0.633 -14.908 -0.633 -14.917 -0.633 -14.918 -0.633 -14.919 -0.633 -14.924 -0.633 -14.925 -0.633 -14.932 -0.633 8.344 0.278 0.312 0.016 41.528 40.754
107.000 -14.920 -0.633 -14.920 -0.633 -14.920 -0.633 -14.927 -0.633 -14.927 -0.633 -14.928 -0.633 -14.932 -0.633 -14.933 -0.633 -14.937 -0.633 8.374 0.279 0.312 0.016 41.533 40.758
108.000 -14.929 -0.633 -14.929 -0.633 -14.929 -0.633 -14.934 -0.633 -14.934 -0.633 -14.934 -0.633 -14.937 -0.633 -14.938 -0.633 -14.941 -0.634 8.397 0.279 0.312 0.016 41.537 40.762
109.000 -14.935 -0.634 -14.935 -0.634 -14.935 -0.634 -14.938 -0.634 -14.938 -0.634 -14.939 -0.634 -14.941 -0.634 -14.941 -0.634 -14.944 -0.634 8.415 0.280 0.311 0.016 41.540 40.764
110.000 -14.939 -0.634 -14.939 -0.634 -14.939 -0.634 -14.942 -0.634 -14.942 -0.634 -14.942 -0.634 -14.944 -0.634 -14.944 -0.634 -14.946 -0.634 8.428 0.280 0.311 0.016 41.542 40.765
111.000 -14.942 -0.634 -14.942 -0.634 -14.942 -0.634 -14.943 -0.634 -14.944 -0.634 -14.944 -0.634 -14.945 -0.634 -14.945 -0.634 -14.946 -0.634 8.437 0.280 0.311 0.016 41.543 40.766
112.000 -14.943 -0.634 -14.943 -0.634 -14.943 -0.634 -14.944 -0.634 -14.944 -0.634 -14.945 -0.634 -14.945 -0.634 -14.945 -0.634 -14.946 -0.634 8.444 0.280 0.311 0.016 41.544 40.766
113.000 -14.944 -0.634 -14.944 -0.634 -14.944 -0.634 -14.945 -0.634 -14.945 -0.634 -14.945 -0.634 -14.945 -0.634 -14.945 -0.634 -14.946 -0.634 8.449 0.280 0.310 0.016 41.544 40.766
114.000 -14.944 -0.634 -14.944 -0.634 -14.944 -0.634 -14.944 -0.634 -14.944 -0.634 -14.944 -0.634 -14.945 -0.634 -14.945 -0.634 -14.945 -0.634 8.453 0.280 0.310 0.016 41.544 40.766
115.000 -14.943 -0.634 -14.943 -0.634 -14.943 -0.634 -14.943 -0.634 -14.943 -0.634 -14.943 -0.634 -14.944 -0.634 -14.944 -0.634 -14.944 -0.634 8.455 0.280 0.310 0.016 41.544 40.766
116.000 -14.942 -0.634 -14.942 -0.634 -14.942 -0.634 -14.942 -0.634 -14.942 -0.634 -14.942 -0.634 -14.942 -0.634 -14.942 -0.634 -14.942 -0.634 8.457 0.280 0.310 0.016 41.543 40.765
117.000 -14.940 -0.634 -14.940 -0.634 -14.940 -0.634 -14.940 -0.634 -14.940 -0.634 -14.940 -0.634 -14.940 -0.634 -14.940 -0.634 -14.941 -0.634 8.458 0.280 0.309 0.016 41.543 40.764
118.000 -14.938 -0.634 -14.938 -0.634 -14.938 -0.634 -14.938 -0.634 -14.938 -0.634 -14.939 -0.634 -14.939 -0.634 -14.939 -0.634 -14.939 -0.634 8.459 0.280 0.309 0.016 41.542 40.764
119.000 -14.936 -0.634 -14.936 -0.634 -14.936 -0.634 -14.936 -0.634 -14.936 -0.634 -14.936 -0.634 -14.936 -0.634 -14.936 -0.634 -14.937 -0.634 8.460 0.280 0.309 0.016 41.541 40.763
120.000 -14.934 -0.634 -14.934 -0.634 -14.934 -0.634 -14.934 -0.634 -14.934 -0.634 -14.934 -0.634 -14.934 -0.634 -14.934 -0.634 -14.934 -0.634 8.460 0.280 0.308 0.016 41.540 40.762
121.000 -14.932 -0.634 -14.932 -0.634 -14.932 -0.634 -14.932 -0.634 -14.932 -0.634 -14.932 -0.634 -14.932 -0.634 -14.932 -0.634 -14.932 -0.634 8.460 0.280 0.308 0.016 41.539 40.761
122.000 -14.929 -0.634 -14.929 -0.634 -14.929 -0.634 -14.929 -0.634 -14.929 -0.634 -14.929 -0.634 -14.929 -0.634 -14.929 -0.634 -14.929 -0.634 8.460 0.280 0.308 0.016 41.538 40.760
123.000 -14.926 -0.634 -14.926 -0.634 -14.926 -0.634 -14.926 -0.634 -14.926 -0.634 -14.926 -0.634 -14.926 -0.634 -14.926 -0.634 -14.926 -0.634 8.460 0.280 0.307 0.016 41.537 40.759
124.000 -14.923 -0.634 -14.923 -0.634 -14.923 -0.634 -14.923 -0.634 -14.923 -0.634 -14.923 -0.634 -14.923 -0.634 -14.923 -0.634 -14.923 -0.634 8.460 0.280 0.307 0.015 41.536 40.757
125.000 -14.919 -0.634 -14.919 -0.634 -14.919 -0.634 -14.919 -0.634 -14.919 -0.634 -14.919 -0.634 -14.919 -0.634 -14.919 -0.634 -14.919 -0.634 8.460 0.280 0.306 0.015 41.534 40.756
126.000 -14.916 -0.634 -14.916 -0.634 -14.916 -0.634 -14.916 -0.634 -14.916 -0.634 -14.916 -0.634 -14.916 -0.634 -14.916 -0.634 -14.916 -0.634 8.460 0.280 0.306 0.015 41.533 40.754
127.000 -14.912 -0.634 -14.912 -0.634 -14.912 -0.634 -14.912 -0.634 -14.912 -0.634 -14.912 -0.634 -14.912 -0.634 -14.912 -0.634 -14.912 -0.634 8.460 0.280 0.305 0.015 41.531 40.753
128.000 -14.907 -0.634 -14.907 -0.634 -14.907 -0.634 -14.907 -0.634 -14.907 -0.634 -14.907 -0.634 -14.907 -0.634 -14.907 -0.634 -14.907 -0.634 8.460 0.280 0.304 0.015 41.530 40.751
129.000 -14.903 -0.634 -14.903 -0.634 -14.903 -0.634 -14.903 -0.634 -14.903 -0.634 -14.903 -0.634 -14.903 -0.634 -14.903 -0.634 -14.903 -0.634 8.460 0.280 0.304 0.015 41.528 40.749
130.000 -14.898 -0.634 -14.898 -0.634 -14.898 -0.634 -14.898 -0.634 -14.898 -0.634 -14.898 -0.634 -14.898 -0.634 -14.898 -0.634 -14.898 -0.634 8.460 0.280 0.303 0.015 41.526 40.747
131.000 -14.892 -0.634 -14.892 -0.634 -14.892 -0.634 -14.892 -0.634 -14.892 -0.634 -14.892 -0.634 -14.892 -0.634 -14.892 -0.634 -14.892 -0.634 8.460 0.280 0.302 0.015 41.524 40.745
132.000 -14.887 -0.634 -14.887 -0.634 -14.887 -0.634 -14.887 -0.634 -14.887 -0.634 -14.887 -0.634 -14.887 -0.634 -14.887 -0.634 -14.887 -0.634 8.460 0.280 0.302 0.015 41.521 40.743
133.000 -14.881 -0.634 -14.881 -0.634 -14.881 -0.634 -14.881 -0.634 -14.881 -0.634 -14.881 -0.634 -14.881 -0.634 -14.881 -0.634 -14.881 -0.634 8.460 0.280 0.301 0.015 41.519 40.740
134.000 -14.874 -0.634 -14.874 -0.634 -14.874 -0.634 -14.874 -0.634 -14.874 -0.634 -14.874 -0.634 -14.874 -0.634 -14.874 -0.634 -14.874 -0.634 8.460 0.280 0.300 0.015 41.516 40.738
135.000 -14.867 -0.634 -14.867 -0.634 -14.867 -0.634 -14.867 -0.634 -14.867 -0.634 -14.867 -0.634 -14.867 -0.634 -14.867 -0.634 -14.867 -0.634 8.460 0.280 0.299 0.015 41.513 40.735
136.000 -14.860 -0.634 -14.860 -0.634 -14.860 -0.634 -14.860 -0.634 -14.860 -0.634 -14.860 -0.634 -14.860 -0.634 -14.860 -0.634 -14.860 -0.634 8.460 0.280 0.298 0.015 41.511 40.732
137.000 -14.852 -0.634 -14.852 -0.634 -14.852 -0.634 -14.852 -0.634 -14.852 -0.634 -14.852 -0.634 -14.852 -0.634 -14.852 -0.634 -14.852 -0.634 8.460 0.280 0.297 0.015 41.507 40.729
138.000 -14.843 -0.634 -14.843 -0.634 -14.843 -0.634 -14.843 -0.634 -14.843 -0.634 -14.843 -0.634 -14.843 -0.634 -14.843 -0.634 -14.843 -0.634 8.460 0.280 0.296 0.015 41.504 40.726
139.000 -14.834 -0.634 -14.834 -0.634 -14.834 -0.634 -14.834 -0.634 -14.834 -0.634 -14.834 -0.634 -14.834 -0.634 -14.834 -0.634 -14.834 -0.634 8.460 0.280 0.294 0.015 41.500 40.722
140.000 -14.825 -0.634 -14.825 -0.634 -14.825 -0.634 -14.825 -0.634 -14.825 -0.634 -14.825 -0.634 -14.825 -0.634 -14.825 -0.634 -14.825 -0.634 8.460 0.280 0.293 0.015 41.497 40.718
141.000 -14.815 -0.634 -14.815 -0.634 -14.815 -0.634 -14.815 -0.634 -14.815 -0.634 -14.815 -0.634 -14.815 -0.634 -14.815 -0.634 -14.815 -0.634 8.460 0.280 0.292 0.015 41.493 40.714
142.000 -14.805 -0.634 -14.805 -0.634 -14.805 -0.634 -14.805 -0.634 -14.805 -0.634 -14.805 -0.634 -14.805 -0.634 -14.805 -0.634 -14.805 -0.634 8.460 0.280 0.290 0.015 41.488 40.710
143.000 -14.793 -0.634 -14.793 -0.634 -14.793 -0.634 -14.793 -0.634 -14.793 -0.634 -14.793 -0.634 -14.793 -0.634 -14.793 -0.634 -14.793 -0.634 8.460 0.280 0.289 0.015 41.484 40.706
144.000 -14.782 -0.634 -14.782 -0.634 -14.782 -0.634 -14.782 -0.634 -14.782 -0.634 -14.782 -0.634 -14.782 -0.634 -14.782 -0.634 -14.782 -0.634 8.460 0.280 0.287 0.015 41.479 40.701
145.000 -14.769 -0.634 -14.769 -0.634 -14.769 -0.634 -14.769 -0.634 -14.769 -0.634 -14.769 -0.634 -14.769 -0.634 -14.769 -0.634 -14.769 -0.634 8.460 0.280 0.286 0.014 41.474 40.696
146.000 -14.756 -0.634 -14.756 -0.634 -14.756 -0.634 -14.756 -0.634 -14.756 -0.634 -14.756 -0.634 -14.756 -0.634 -14.756 -0.634 -14.756 -0.634 8.460 0.280 0.284 0.014 41.469 40.691
147.000 -14.743 -0.634 -14.743 -0.634 -14.743 -0.634 -14.743 -0.634 -14.743 -0.634 -14.743 -0.634 -14.743 -0.634 -14.743 -0.634 -14.743 -0.634 8.460 0.280 0.282 0.014 41.464 40.685
148.000 -14.728 -0.634 -14.728 -0.634 -14.728 -0.634 -14.728 -0.634 -14.728 -0.634 -14.728 -0.634 -14.728 -0.634 -14.728 -0.634 -14.728 -0.634 8.460 0.280 0.280 0.014 41.458 40.680
149.000 -14.713 -0.634 -14.713 -0.634 -14.713 -0.634 -14.713 -0.634 -14.713 -0.634 -14.713 -0.634 -14.713 -0.634 -14.713 -0.634 -14.713 -0.634 8.460 0.280 0.278 0.014 41.452 40.674
150.000 -14.697 -0.634 -14.697 -0.634 -14.697 -0.634 -14.697 -0.634 -14.697 -0.634 -14.697 -0.634 -14.697 -0.634 -14.697 -0.634 -14.697 -0.634 8.460 0.280 0.276 0.014 41.446 40.667
151.000 -14.681 -0.634 -14.681 -0.634 -14.681 -0.634 -14.681 -0.634 -14.681 -0.634 -14.681 -0.634 -14.681 -0.634 -14.681 -0.634 -14.681 -0.634 8.460 0.280 0.274 0.014 41.439 40.661
152.000 -14.663 -0.634 -14.663 -0.634 -14.663 -0.634 -14.663 -0.634 -14.663 -0.634 -14.663 -0.634 -14.663 -0.634 -14.663 -0.634 -14.663 -0.634 8.460 0.280 0.272 0.014 41.432 40.654
153.000 -14.645 -0.634 -14.645 -0.634 -14.645 -0.634 -14.645 -0.634 -14.645 -0.634 -14.645 -0.634 -14.645 -0.634 -14.645 -0.634 -14.645 -0.634 8.460 0.280 0.270 0.014 41.425 40.647
154.000 -14.626 -0.634 -14.626 -0.634 -14.626 -0.634 -14.626 -0.633 -14.626 -0.633 -14.626 -0.633 -14.626 -0.634 -14.626 -0.634 -14.626 -0.634 8.459 0.280 0.268 0.014 41.417 40.639
155.000 -14.605 -0.633 -14.605 -0.633 -14.605 -0.633 -14.606 -0.633 -14.606 -0.633 -14.606 -0.633 -14.606 -0.633 -14.606 -0.633 -14.606 -0.634 8.459 0.280 0.265 0.013 41.409 40.631
156.000 -14.584 -0.633 -14.584 -0.633 -14.584 -0.633 -14.585 -0.633 -14.585 -0.633 -14.585 -0.633 -14.584 -0.633 -14.584 -0.633 -14.585 -0.634 8.458 0.280 0.263 0.013 41.400 40.622
157.000 -14.562 -0.633 -14.562 -0.633 -14.562 -0.633 -14.563 -0.633 -14.563 -0.633 -14.563 -0.633 -14.562 -0.633 -14.562 -0.633 -14.563 -0.633 8.457 0.279 0.260 0.013 41.391 40.612
158.000 -14.539 -0.633 -14.539 -0.633 -14.539 -0.633 -14.540 -0.633 -14.540 -0.633 -14.540 -0.633 -14.539 -0.633 -14.539 -0.633 -14.539 -0.633 8.455 0.278 0.257 0.013 41.382 40.601
159.000 -14.514 -0.633 -14.514 -0.633 -14.514 -0.633 -14.516 -0.632 -14.516 -0.632 -14.516 -0.632 -14.515 -0.633 -14.515 -0.633 -14.515 -0.633 8.453 0.276 0.254 0.013 41.372 40.589
160.000 -14.488 -0.632 -14.488 -0.632 -14.488 -0.632 -14.491 -0.631 -14.491 -0.631 -14.491 -0.631 -14.490 -0.632 -14.489 -0.632 -14.489 -0.633 8.451 0.274 0.252 0.012 41.362 40.574
161.000 -14.461 -0.632 -14.461 -0.632 -14.461 -0.632 -14.465 -0.630 -14.465 -0.630 -14.465 -0.630 -14.463 -0.631 -14.463 -0.632 -14.462 -0.633 8.447 0.270 0.249 0.012 41.351 40.557
162.000 -14.432 -0.631 -14.432 -0.631 -14.432 -0.631 -14.439 -0.628 -14.439 -0.628 -14.439 -0.628 -14.435 -0.630 -14.435 -0.631 -14.433 -0.633 8.442 0.264 0.246 0.012 41.340 40.537
163.000 -14.402 -0.629 -14.402 -0.629 -14.402 -0.629 -14.411 -0.625 -14.411 -0.625 -14.412 -0.625 -14.407 -0.628 -14.406 -0.629 -14.402 -0.632 8.435 0.256 0.243 0.011 41.328 40.512
164.000 -14.369 -0.627 -14.369 -0.627 -14.370 -0.626 -14.383 -0.620 -14.384 -0.620 -14.384 -0.620 -14.377 -0.626 -14.375 -0.627 -14.370 -0.632 8.427 0.245 0.240 0.011 41.315 40.481
165.000 -14.336 -0.624 -14.336 -0.624 -14.337 -0.623 -14.355 -0.614 -14.355 -0.614 -14.356 -0.614 -14.346 -0.622 -14.343 -0.624 -14.336 -0.631 8.415 0.231 0.237 0.010 41.302 40.442
166.000 -14.300 -0.620 -14.300 -0.620 -14.302 -0.619 -14.327 -0.605 -14.327 -0.605 -14.328 -0.605 -14.314 -0.617 -14.310 -0.620 -14.299 -0.629 8.400 0.212 0.234 0.009 41.288 40.392
167.000 -14.262 -0.614 -14.262 -0.614 -14.264 -0.613 -14.299 -0.594 -14.299 -0.594 -14.299 -0.594 -14.281 -0.611 -14.276 -0.614 -14.260 -0.627 8.381 0.187 0.231 0.008 41.274 40.326
168.000 -14.222 -0.607 -14.222 -0.607 -14.225 -0.605 -14.271 -0.580 -14.271 -0.580 -14.272 -0.580 -14.247 -0.602 -14.241 -0.607 -14.219 -0.625 8.355 0.156 0.229 0.007 41.259 40.235
169.000 -14.179 -0.598 -14.179 -0.598 -14.184 -0.595 -14.243 -0.562 -14.244 -0.562 -14.245 -0.562 -14.212 -0.592 -14.205 -0.598 -14.175 -0.622 8.322 0.119 0.226 0.005 41.243 40.103
170.000 -14.134 -0.587 -14.134 -0.587 -14.140 -0.583 -14.217 -0.540 -14.218 -0.540 -14.219 -0.540 -14.177 -0.579 -14.167 -0.586 -14.128 -0.617 8.280 0.076 0.224 0.003 41.227 39.891
171.000 -14.086 -0.573 -14.086 -0.573 -14.094 -0.569 -14.192 -0.514 -14.193 -0.514 -14.195 -0.515 -14.142 -0.564 -14.129 -0.573 -14.078 -0.612 8.227 0.035 0.223 0.001 41.209 39.544
172.000 -14.035 -0.557 -14.035 -0.557 -14.045 -0.551 -14.169 -0.484 -14.170 -0.484 -14.172 -0.485 -14.106 -0.546 -14.091 -0.557 -14.026 -0.605 8.161 0.059 0.222 0.003 41.191 39.760
173.000 -13.981 -0.538 -13.982 -0.538 -13.993 -0.532 -14.147 -0.450 -14.148 -0.450 -14.151 -0.451 -14.071 -0.526 -14.052 -0.539 -13.970 -0.596 8.079 0.125 0.221 0.005 41.173 40.071
174.000 -13.924 -0.517 -13.925 -0.517 -13.939 -0.509 -14.126 -0.413 -14.128 -0.413 -14.132 -0.414 -14.036 -0.503 -14.012 -0.518 -13.912 -0.586 7.980 0.202 0.222 0.009 41.154 40.267
175.000 -13.864 -0.493 -13.864 -0.493 -13.882 -0.485 -14.108 -0.374 -14.110 -0.373 -14.115 -0.375 -14.001 -0.478 -13.973 -0.496 -13.852 -0.573 7.862 0.285 0.224 0.013 41.134 40.405
176.000 -13.800 -0.467 -13.801 -0.467 -13.821 -0.458 -14.091 -0.333 -14.094 -0.332 -14.100 -0.334 -13.967 -0.451 -13.934 -0.471 -13.789 -0.558 7.724 0.371 0.226 0.018 41.114 40.510
177.000 -13.733 -0.438 -13.734 -0.438 -13.758 -0.428 -14.076 -0.291 -14.080 -0.291 -14.086 -0.293 -13.934 -0.423 -13.895 -0.444 -13.725 -0.540 7.568 0.457 0.231 0.023 41.095 40.593
178.000 -13.664 -0.408 -13.664 -0.408 -13.693 -0.397 -14.063 -0.251 -14.067 -0.251 -14.075 -0.253 -13.902 -0.393 -13.857 -0.415 -13.661 -0.518 7.394 0.539 0.237 0.029 41.077 40.660
179.000 -13.592 -0.375 -13.592 -0.375 -13.625 -0.365 -14.050 -0.213 -14.055 -0.213 -14.065 -0.216 -13.871 -0.361 -13.821 -0.384 -13.595 -0.494 7.205 0.614 0.244 0.036 41.059 40.714
180.000 -13.518 -0.340 -13.518 -0.340 -13.555 -0.330 -14.039 -0.179 -14.045 -0.178 -14.056 -0.182 -13.842 -0.329 -13.786 -0.351 -13.531 -0.467 7.005 0.676 0.254 0.044 41.043 40.757
181.000 -13.443 -0.304 -13.444 -0.304 -13.485 -0.295 -14.028 -0.149 -14.035 -0.149 -14.048 -0.152 -13.814 -0.295 -13.752 -0.316 -13.468 -0.438 6.799 0.724 0.265 0.052 41.029 40.790
182.000 -13.368 -0.267 -13.369 -0.267 -13.415 -0.258 -14.019 -0.124 -14.026 -0.124 -14.041 -0.127 -13.789 -0.260 -13.721 -0.279 -13.407 -0.407 6.591 0.755 0.278 0.060 41.016 40.814
183.000 -13.295 -0.229 -13.296 -0.229 -13.346 -0.221 -14.009 -0.104 -14.018 -0.103 -14.035 -0.107 -13.767 -0.224 -13.693 -0.241 -13.350 -0.375 6.385 0.767 0.292 0.068 41.003 40.828
184.000 -13.225 -0.191 -13.226 -0.191 -13.280 -0.185 -14.000 -0.087 -14.010 -0.087 -14.029 -0.091 -13.747 -0.188 -13.668 -0.201 -13.298 -0.343 6.184 0.761 0.306 0.075 40.990 40.832
185.000 -13.159 -0.154 -13.160 -0.154 -13.218 -0.149 -13.991 -0.074 -14.002 -0.074 -14.024 -0.077 -13.730 -0.151 -13.647 -0.162 -13.251 -0.314 5.992 0.737 0.321 0.081 40.977 40.826
186.000 -13.099 -0.120 -13.100 -0.120 -13.161 -0.116 -13.983 -0.063 -13.995 -0.063 -14.018 -0.066 -13.716 -0.116 -13.629 -0.123 -13.210 -0.290 5.823 0.697 0.334 0.085 40.962 40.806
187.000 -13.046 -0.090 -13.047 -0.090 -13.112 -0.087 -13.976 -0.055 -13.988 -0.055 -14.013 -0.057 -13.706 -0.085 -13.615 -0.089 -13.176 -0.273 5.733 0.656 0.337 0.084 40.941 40.771
188.000 -13.002 -0.068 -13.003 -0.068 -13.070 -0.066 -13.968 -0.050 -13.981 -0.050 -14.008 -0.052 -13.698 -0.062 -13.605 -0.063 -13.148 -0.263 5.644 0.594 0.338 0.079 40.918 40.717
189.000 -12.966 -0.059 -12.967 -0.059 -13.036 -0.058 -13.961 -0.050 -13.974 -0.049 -14.003 -0.051 -13.692 -0.055 -13.598 -0.054 -13.127 -0.260 5.576 0.552 0.341 0.077 40.904 40.681
190.000 -12.940 -0.062 -12.941 -0.062 -13.011 -0.061 -13.953 -0.052 -13.966 -0.052 -13.996 -0.053 -13.688 -0.064 -13.593 -0.065 -13.112 -0.262 5.465 0.545 0.356 0.083 40.907 40.695
191.000 -12.922 -0.071 -12.923 -0.071 -12.994 -0.069 -13.943 -0.057 -13.957 -0.056 -13.987 -0.057 -13.685 -0.079 -13.590 -0.081 -13.102 -0.268 5.388 0.553 0.369 0.090 40.913 40.717
192.000 -12.912 -0.079 -12.913 -0.079 -12.984 -0.078 -13.931 -0.061 -13.945 -0.061 -13.976 -0.062 -13.681 -0.092 -13.587 -0.097 -13.096 -0.275 5.360 0.560 0.374 0.093 40.915 40.728
193.000 -12.907 -0.085 -12.908 -0.085 -12.979 -0.083 -13.916 -0.064 -13.930 -0.064 -13.960 -0.064 -13.675 -0.102 -13.583 -0.108 -13.093 -0.280 5.355 0.559 0.374 0.093 40.915 40.728
194.000 -12.906 -0.087 -12.907 -0.087 -12.977 -0.085 -13.895 -0.065 -13.909 -0.065 -13.939 -0.065 -13.665 -0.107 -13.575 -0.114 -13.090 -0.284 5.364 0.550 0.372 0.091 40.912 40.718
195.000 -12.906 -0.085 -12.907 -0.085 -12.975 -0.083 -13.868 -0.064 -13.882 -0.063 -13.911 -0.064 -13.649 -0.107 -13.563 -0.114 -13.085 -0.284 5.377 0.535 0.369 0.087 40.909 40.700
196.000 -12.903 -0.081 -12.904 -0.081 -12.971 -0.079 -13.834 -0.061 -13.846 -0.060 -13.875 -0.061 -13.627 -0.103 -13.544 -0.111 -13.078 -0.283 5.398 0.515 0.363 0.082 40.902 40.675
197.000 -12.895 -0.076 -12.896 -0.076 -12.960 -0.075 -13.790 -0.057 -13.802 -0.056 -13.830 -0.057 -13.596 -0.097 -13.517 -0.104 -13.064 -0.279 5.429 0.494 0.355 0.076 40.893 40.643
198.000 -12.879 -0.072 -12.880 -0.072 -12.941 -0.071 -13.736 -0.053 -13.748 -0.052 -13.775 -0.052 -13.556 -0.090 -13.481 -0.097 -13.044 -0.275 5.477 0.476 0.343 0.070 40.879 40.606
199.000 -12.886 -0.071 -12.887 -0.071 -12.947 -0.069 -13.707 -0.050 -13.718 -0.049 -13.744 -0.049 -13.541 -0.084 -13.470 -0.090 -13.049 -0.272 5.541 0.466 0.334 0.064 40.874 40.582
200.000 -12.921 -0.073 -12.922 -0.073 -12.980 -0.071 -13.708 -0.048 -13.719 -0.047 -13.744 -0.047 -13.556 -0.082 -13.489 -0.088 -13.086 -0.270 5.620 0.462 0.327 0.060 40.880 40.573
201.000 -12.944 -0.078 -12.945 -0.078 -13.000 -0.076 -13.702 -0.049 -13.713 -0.048 -13.737 -0.048 -13.562 -0.083 -13.498 -0.089 -13.113 -0.270 5.696 0.460 0.319 0.057 40.882 40.563
202.000 -12.954 -0.085 -12.954 -0.085 -13.008 -0.082 -13.689 -0.052 -13.699 -0.051 -13.723 -0.050 -13.560 -0.087 -13.500 -0.094 -13.130 -0.272 5.762 0.458 0.311 0.053 40.880 40.550
203.000 -12.951 -0.091 -12.951 -0.091 -13.004 -0.089 -13.670 -0.055 -13.681 -0.054 -13.704 -0.053 -13.551 -0.093 -13.493 -0.100 -13.137 -0.275 5.792 0.452 0.306 0.051 40.875 40.536
204.000 -12.936 -0.097 -12.937 -0.097 -12.989 -0.094 -13.649 -0.059 -13.659 -0.057 -13.683 -0.056 -13.535 -0.099 -13.478 -0.106 -13.134 -0.278 5.807 0.446 0.301 0.050 40.867 40.521
205.000 -12.912 -0.101 -12.913 -0.100 -12.965 -0.098 -13.625 -0.062 -13.635 -0.060 -13.659 -0.059 -13.513 -0.103 -13.458 -0.111 -13.123 -0.282 5.803 0.442 0.298 0.049 40.857 40.507
206.000 -12.881 -0.102 -12.882 -0.102 -12.935 -0.099 -13.602 -0.065 -13.612 -0.063 -13.636 -0.061 -13.488 -0.105 -13.433 -0.113 -13.104 -0.284 5.786 0.440 0.296 0.049 40.845 40.496
207.000 -12.846 -0.101 -12.847 -0.101 -12.900 -0.098 -13.580 -0.066 -13.590 -0.065 -13.614 -0.063 -13.460 -0.104 -13.404 -0.113 -13.078 -0.285 5.763 0.440 0.294 0.049 40.833 40.487
208.000 -12.809 -0.097 -12.810 -0.097 -12.864 -0.094 -13.561 -0.068 -13.571 -0.066 -13.594 -0.064 -13.429 -0.101 -13.372 -0.110 -13.047 -0.285 5.740 0.443 0.292 0.049 40.819 40.480
209.000 -12.773 -0.091 -12.773 -0.091 -12.830 -0.089 -13.544 -0.068 -13.554 -0.066 -13.577 -0.064 -13.397 -0.095 -13.337 -0.104 -13.013 -0.283 5.724 0.447 0.289 0.050 40.805 40.473
210.000 -12.739 -0.084 -12.740 -0.084 -12.798 -0.082 -13.530 -0.067 -13.540 -0.065 -13.563 -0.064 -13.363 -0.087 -13.301 -0.096 -12.977 -0.281 5.720 0.453 0.284 0.050 40.790 40.465
211.000 -12.710 -0.076 -12.711 -0.076 -12.771 -0.073 -13.519 -0.064 -13.529 -0.063 -13.550 -0.062 -13.330 -0.078 -13.265 -0.087 -12.940 -0.279 5.733 0.459 0.278 0.050 40.776 40.456
212.000 -12.687 -0.067 -12.688 -0.067 -12.749 -0.065 -13.509 -0.061 -13.519 -0.060 -13.538 -0.058 -13.295 -0.068 -13.228 -0.077 -12.906 -0.277 5.766 0.466 0.271 0.049 40.761 40.446
213.000 -12.669 -0.060 -12.670 -0.060 -12.733 -0.057 -13.500 -0.057 -13.509 -0.056 -13.526 -0.054 -13.261 -0.059 -13.192 -0.069 -12.875 -0.275 5.809 0.476 0.263 0.048 40.749 40.439
214.000 -12.658 -0.055 -12.659 -0.055 -12.723 -0.052 -13.490 -0.052 -13.498 -0.051 -13.514 -0.050 -13.228 -0.054 -13.158 -0.065 -12.849 -0.275 5.840 0.493 0.258 0.048 40.741 40.443
215.000 -12.652 -0.052 -12.653 -0.052 -12.717 -0.049 -13.479 -0.047 -13.486 -0.046 -13.499 -0.045 -13.196 -0.055 -13.125 -0.067 -12.831 -0.276 5.825 0.516 0.260 0.051 40.742 40.466
216.000 -12.650 -0.053 -12.651 -0.053 -12.715 -0.050 -13.466 -0.042 -13.472 -0.041 -13.483 -0.040 -13.166 -0.062 -13.096 -0.075 -12.820 -0.277 5.760 0.532 0.268 0.055 40.752 40.496
217.000 -12.651 -0.055 -12.652 -0.055 -12.717 -0.052 -13.450 -0.038 -13.456 -0.037 -13.465 -0.037 -13.140 -0.073 -13.072 -0.086 -12.819 -0.278 5.686 0.533 0.279 0.059 40.764 40.515
218.000 -12.655 -0.059 -12.656 -0.059 -12.720 -0.056 -13.433 -0.035 -13.438 -0.035 -13.444 -0.036 -13.118 -0.084 -13.052 -0.097 -12.828 -0.278 5.647 0.524 0.286 0.059 40.772 40.518
219.000 -12.660 -0.062 -12.661 -0.062 -12.724 -0.059 -13.414 -0.035 -13.419 -0.034 -13.423 -0.036 -13.101 -0.094 -13.039 -0.107 -12.846 -0.276 5.649 0.509 0.286 0.058 40.774 40.506
220.000 -12.666 -0.065 -12.667 -0.064 -12.728 -0.062 -13.395 -0.035 -13.399 -0.035 -13.402 -0.037 -13.089 -0.101 -13.033 -0.115 -12.873 -0.271 5.682 0.492 0.282 0.054 40.771 40.484
221.000 -12.671 -0.066 -12.672 -0.065 -12.732 -0.063 -13.376 -0.037 -13.379 -0.036 -13.381 -0.039 -13.084 -0.105 -13.033 -0.118 -12.908 -0.263 5.732 0.472 0.275 0.050 40.764 40.454
222.000 -12.676 -0.065 -12.677 -0.065 -12.736 -0.063 -13.357 -0.039 -13.360 -0.038 -13.362 -0.041 -13.085 -0.105 -13.040 -0.117 -12.949 -0.250 5.789 0.448 0.267 0.045 40.757 40.419
223.000 -12.681 -0.063 -12.682 -0.063 -12.739 -0.062 -13.340 -0.040 -13.343 -0.040 -13.345 -0.042 -13.091 -0.101 -13.052 -0.112 -12.993 -0.233 5.848 0.423 0.260 0.041 40.749 40.381
224.000 -12.686 -0.061 -12.687 -0.060 -12.742 -0.059 -13.325 -0.042 -13.328 -0.041 -13.330 -0.043 -13.101 -0.094 -13.067 -0.103 -13.039 -0.212 5.909 0.398 0.252 0.037 40.742 40.343
225.000 -12.691 -0.057 -12.692 -0.057 -12.746 -0.056 -13.312 -0.042 -13.315 -0.042 -13.318 -0.043 -13.114 -0.084 -13.085 -0.091 -13.082 -0.188 5.975 0.375 0.245 0.033 40.736 40.304
226.000 -12.696 -0.054 -12.697 -0.054 -12.749 -0.053 -13.301 -0.042 -13.304 -0.041 -13.308 -0.042 -13.127 -0.073 -13.103 -0.078 -13.121 -0.162 6.051 0.355 0.237 0.030 40.731 40.267
227.000 -12.703 -0.052 -12.704 -0.051 -12.754 -0.051 -13.291 -0.041 -13.294 -0.040 -13.299 -0.041 -13.139 -0.063 -13.119 -0.065 -13.152 -0.136 6.136 0.340 0.230 0.027 40.727 40.233
228.000 -12.710 -0.051 -12.711 -0.051 -12.760 -0.050 -13.281 -0.040 -13.285 -0.039 -13.290 -0.040 -13.148 -0.055 -13.131 -0.055 -13.174 -0.111 6.226 0.331 0.222 0.024 40.724 40.206
229.000 -12.718 -0.054 -12.719 -0.054 -12.766 -0.052 -13.272 -0.038 -13.276 -0.038 -13.281 -0.039 -13.152 -0.052 -13.137 -0.051 -13.184 -0.088 6.314 0.325 0.216 0.022 40.724 40.187
230.000 -12.727 -0.058 -12.728 -0.058 -12.774 -0.056 -13.263 -0.038 -13.266 -0.037 -13.272 -0.039 -13.151 -0.054 -13.137 -0.052 -13.182 -0.071 6.384 0.321 0.212 0.021 40.726 40.173
231.000 -12.737 -0.063 -12.737 -0.063 -12.782 -0.061 -13.252 -0.038 -13.256 -0.037 -13.261 -0.039 -13.144 -0.058 -13.130 -0.056 -13.168 -0.061 6.474 0.318 0.207 0.019 40.728 40.160
232.000 -12.746 -0.068 -12.746 -0.068 -12.789 -0.066 -13.241 -0.038 -13.244 -0.038 -13.249 -0.040 -13.131 -0.063 -13.116 -0.061 -13.143 -0.057 6.587 0.322 0.200 0.018 40.728 40.154
233.000 -12.753 -0.072 -12.754 -0.072 -12.795 -0.070 -13.228 -0.039 -13.231 -0.039 -13.235 -0.041 -13.114 -0.067 -13.097 -0.066 -13.109 -0.058 6.711 0.335 0.192 0.017 40.727 40.158
234.000 -12.759 -0.074 -12.759 -0.074 -12.799 -0.072 -13.214 -0.040 -13.217 -0.040 -13.221 -0.042 -13.093 -0.069 -13.074 -0.067 -13.066 -0.062 6.835 0.354 0.185 0.017 40.726 40.169
235.000 -12.761 -0.074 -12.761 -0.074 -12.799 -0.072 -13.199 -0.040 -13.202 -0.040 -13.205 -0.042 -13.071 -0.068 -13.049 -0.067 -13.019 -0.068 6.945 0.376 0.179 0.017 40.723 40.184
236.000 -12.758 -0.072 -12.758 -0.072 -12.795 -0.069 -13.184 -0.040 -13.187 -0.040 -13.190 -0.041 -13.048 -0.066 -13.024 -0.065 -12.969 -0.076 7.024 0.396 0.174 0.017 40.718 40.196
237.000 -12.749 -0.067 -12.749 -0.067 -12.785 -0.065 -13.168 -0.040 -13.171 -0.039 -13.174 -0.040 -13.027 -0.063 -12.999 -0.061 -12.919 -0.087 7.058 0.408 0.171 0.017 40.712 40.201
238.000 -12.734 -0.062 -12.734 -0.062 -12.769 -0.060 -13.152 -0.039 -13.155 -0.039 -13.159 -0.040 -13.008 -0.059 -12.977 -0.057 -12.870 -0.101 7.042 0.407 0.170 0.017 40.703 40.194
239.000 -12.712 -0.056 -12.712 -0.056 -12.746 -0.054 -13.135 -0.039 -13.138 -0.038 -13.144 -0.039 -12.992 -0.055 -12.959 -0.054 -12.825 -0.116 6.979 0.394 0.171 0.017 40.693 40.177
240.000 -12.683 -0.050 -12.684 -0.050 -12.717 -0.049 -13.118 -0.039 -13.122 -0.038 -13.129 -0.039 -12.980 -0.053 -12.944 -0.051 -12.785 -0.133 6.877 0.373 0.173 0.017 40.681 40.152
241.000 -12.648 -0.046 -12.649 -0.046 -12.683 -0.046 -13.100 -0.040 -13.105 -0.039 -13.115 -0.039 -12.972 -0.052 -12.934 -0.051 -12.750 -0.150 6.748 0.350 0.178 0.018 40.668 40.126
242.000 -12.608 -0.045 -12.609 -0.045 -12.643 -0.045 -13.081 -0.040 -13.087 -0.039 -13.100 -0.039 -12.966 -0.051 -12.926 -0.051 -12.719 -0.166 6.605 0.330 0.183 0.018 40.657 40.104
243.000 -12.565 -0.045 -12.566 -0.045 -12.600 -0.045 -13.061 -0.041 -13.068 -0.040 -13.085 -0.040 -12.963 -0.051 -12.921 -0.052 -12.693 -0.181 6.456 0.315 0.189 0.018 40.646 40.087
244.000 -12.521 -0.045 -12.521 -0.045 -12.556 -0.045 -13.041 -0.040 -13.049 -0.040 -13.069 -0.039 -12.960 -0.051 -12.917 -0.052 -12.671 -0.194 6.310 0.303 0.196 0.019 40.636 40.074
245.000 -12.477 -0.046 -12.477 -0.046 -12.512 -0.046 -13.019 -0.039 -13.029 -0.039 -13.052 -0.039 -12.957 -0.051 -12.913 -0.053 -12.651 -0.205 6.169 0.291 0.203 0.020 40.628 40.063
246.000 -12.436 -0.045 -12.436 -0.045 -12.470 -0.045 -12.997 -0.038 -13.008 -0.037 -13.034 -0.037 -12.953 -0.051 -12.908 -0.053 -12.632 -0.214 6.040 0.278 0.210 0.021 40.621 40.050
247.000 -12.399 -0.045 -12.400 -0.044 -12.434 -0.044 -12.975 -0.036 -12.987 -0.035 -13.015 -0.036 -12.948 -0.052 -12.903 -0.054 -12.614 -0.222 5.926 0.265 0.217 0.021 40.615 40.035
248.000 -12.369 -0.043 -12.369 -0.043 -12.403 -0.043 -12.953 -0.035 -12.965 -0.034 -12.996 -0.035 -12.941 -0.053 -12.895 -0.055 -12.596 -0.227 5.836 0.250 0.222 0.021 40.609 40.016
249.000 -12.346 -0.043 -12.347 -0.042 -12.379 -0.042 -12.932 -0.034 -12.945 -0.034 -12.977 -0.035 -12.932 -0.056 -12.886 -0.058 -12.578 -0.231 5.782 0.237 0.225 0.020 40.604 39.993
250.000 -12.331 -0.043 -12.332 -0.043 -12.363 -0.042 -12.912 -0.035 -12.925 -0.035 -12.959 -0.037 -12.921 -0.058 -12.876 -0.061 -12.560 -0.233 5.774 0.227 0.224 0.020 40.597 39.971
251.000 -12.325 -0.046 -12.325 -0.046 -12.355 -0.044 -12.893 -0.038 -12.906 -0.038 -12.940 -0.040 -12.910 -0.061 -12.864 -0.064 -12.542 -0.233 5.813 0.224 0.219 0.019 40.590 39.953
252.000 -12.325 -0.050 -12.326 -0.050 -12.354 -0.048 -12.875 -0.041 -12.888 -0.041 -12.922 -0.043 -12.897 -0.064 -12.852 -0.066 -12.524 -0.231 5.894 0.225 0.211 0.018 40.583 39.939
253.000 -12.333 -0.056 -12.333 -0.056 -12.359 -0.054 -12.857 -0.045 -12.871 -0.045 -12.905 -0.047 -12.885 -0.065 -12.839 -0.068 -12.508 -0.226 6.005 0.229 0.202 0.016 40.577 39.927
254.000 -12.345 -0.062 -12.345 -0.062 -12.369 -0.060 -12.840 -0.049 -12.853 -0.049 -12.887 -0.050 -12.872 -0.066 -12.827 -0.069 -12.494 -0.218 6.137 0.234 0.192 0.015 40.573 39.915
255.000 -12.360 -0.069 -12.361 -0.068 -12.382 -0.066 -12.823 -0.053 -12.836 -0.052 -12.869 -0.053 -12.860 -0.067 -12.816 -0.069 -12.482 -0.208 6.282 0.237 0.183 0.014 40.569 39.901
256.000 -12.377 -0.074 -12.378 -0.074 -12.396 -0.071 -12.805 -0.056 -12.817 -0.055 -12.849 -0.056 -12.848 -0.068 -12.806 -0.069 -12.472 -0.195 6.432 0.239 0.174 0.013 40.567 39.885
257.000 -12.395 -0.078 -12.395 -0.078 -12.411 -0.076 -12.785 -0.058 -12.797 -0.057 -12.829 -0.058 -12.836 -0.068 -12.796 -0.069 -12.466 -0.181 6.583 0.240 0.166 0.011 40.566 39.869
258.000 -12.411 -0.081 -12.411 -0.081 -12.424 -0.078 -12.764 -0.059 -12.775 -0.059 -12.806 -0.059 -12.825 -0.070 -12.787 -0.069 -12.463 -0.164 6.731 0.240 0.158 0.010 40.565 39.854
259.000 -12.425 -0.083 -12.426 -0.083 -12.436 -0.080 -12.740 -0.059 -12.751 -0.059 -12.781 -0.060 -12.813 -0.071 -12.778 -0.070 -12.464 -0.148 6.877 0.240 0.152 0.010 40.564 39.840
260.000 -12.437 -0.083 -12.437 -0.082 -12.444 -0.080 -12.714 -0.059 -12.724 -0.059 -12.754 -0.060 -12.801 -0.072 -12.770 -0.071 -12.466 -0.131 7.017 0.241 0.145 0.009 40.562 39.826
261.000 -12.446 -0.081 -12.446 -0.081 -12.451 -0.078 -12.685 -0.058 -12.696 -0.058 -12.725 -0.059 -12.788 -0.073 -12.760 -0.071 -12.472 -0.118 7.145 0.239 0.140 0.008 40.560 39.809
262.000 -12.452 -0.078 -12.452 -0.078 -12.454 -0.076 -12.656 -0.057 -12.666 -0.057 -12.694 -0.058 -12.774 -0.072 -12.751 -0.070 -12.480 -0.108 7.246 0.235 0.135 0.008 40.556 39.791
263.000 -12.456 -0.075 -12.456 -0.075 -12.455 -0.073 -12.625 -0.056 -12.635 -0.055 -12.663 -0.056 -12.760 -0.071 -12.740 -0.069 -12.489 -0.105 7.315 0.236 0.132 0.007 40.552 39.785
264.000 -12.456 -0.072 -12.456 -0.072 -12.453 -0.070 -12.594 -0.054 -12.603 -0.054 -12.631 -0.054 -12.745 -0.069 -12.730 -0.067 -12.500 -0.109 7.360 0.255 0.130 0.008 40.547 39.809
265.000 -12.454 -0.069 -12.454 -0.069 -12.449 -0.067 -12.563 -0.053 -12.572 -0.053 -12.599 -0.053 -12.731 -0.066 -12.720 -0.064 -12.513 -0.120 7.397 0.294 0.128 0.009 40.541 39.863
266.000 -12.449 -0.068 -12.449 -0.068 -12.442 -0.066 -12.534 -0.052 -12.542 -0.051 -12.569 -0.052 -12.717 -0.063 -12.710 -0.062 -12.528 -0.134 7.429 0.347 0.126 0.010 40.535 39.926
267.000 -12.442 -0.067 -12.441 -0.067 -12.433 -0.065 -12.505 -0.051 -12.514 -0.050 -12.540 -0.050 -12.704 -0.061 -12.702 -0.060 -12.544 -0.151 7.447 0.404 0.124 0.011 40.528 39.984
268.000 -12.430 -0.068 -12.430 -0.068 -12.420 -0.066 -12.478 -0.050 -12.487 -0.049 -12.513 -0.049 -12.693 -0.059 -12.695 -0.059 -12.562 -0.168 7.438 0.462 0.123 0.013 40.519 40.032
269.000 -12.415 -0.071 -12.415 -0.071 -12.404 -0.069 -12.453 -0.049 -12.462 -0.048 -12.489 -0.048 -12.684 -0.058 -12.690 -0.059 -12.581 -0.184 7.394 0.516 0.123 0.015 40.509 40.073
270.000 -12.395 -0.074 -12.395 -0.074 -12.384 -0.072 -12.430 -0.049 -12.439 -0.048 -12.466 -0.047 -12.679 -0.058 -12.689 -0.060 -12.602 -0.199 7.313 0.563 0.124 0.016 40.497 40.104
271.000 -12.371 -0.078 -12.371 -0.078 -12.360 -0.076 -12.408 -0.048 -12.417 -0.047 -12.445 -0.046 -12.676 -0.059 -12.690 -0.061 -12.625 -0.211 7.187 0.597 0.127 0.018 40.483 40.126
272.000 -12.342 -0.083 -12.342 -0.083 -12.331 -0.080 -12.387 -0.048 -12.397 -0.047 -12.427 -0.047 -12.676 -0.060 -12.694 -0.063 -12.648 -0.222 7.030 0.617 0.130 0.020 40.470 40.139
273.000 -12.308 -0.087 -12.308 -0.087 -12.298 -0.084 -12.368 -0.049 -12.378 -0.048 -12.410 -0.047 -12.679 -0.062 -12.700 -0.065 -12.671 -0.229 6.853 0.622 0.135 0.022 40.457 40.143
274.000 -12.271 -0.090 -12.270 -0.090 -12.261 -0.087 -12.349 -0.050 -12.360 -0.049 -12.394 -0.049 -12.684 -0.063 -12.708 -0.066 -12.693 -0.235 6.670 0.613 0.141 0.024 40.445 40.142
275.000 -12.230 -0.092 -12.229 -0.092 -12.220 -0.089 -12.331 -0.051 -12.343 -0.050 -12.380 -0.050 -12.690 -0.065 -12.716 -0.068 -12.711 -0.238 6.498 0.595 0.146 0.025 40.435 40.134
276.000 -12.186 -0.091 -12.186 -0.091 -12.178 -0.088 -12.314 -0.052 -12.327 -0.051 -12.366 -0.050 -12.695 -0.066 -12.723 -0.068 -12.726 -0.239 6.350 0.571 0.152 0.026 40.426 40.123
277.000 -12.143 -0.088 -12.143 -0.088 -12.136 -0.085 -12.297 -0.051 -12.311 -0.050 -12.353 -0.050 -12.698 -0.066 -12.727 -0.069 -12.733 -0.239 6.236 0.544 0.156 0.027 40.418 40.106
278.000 -12.100 -0.084 -12.100 -0.083 -12.094 -0.080 -12.280 -0.050 -12.295 -0.049 -12.340 -0.049 -12.697 -0.066 -12.726 -0.068 -12.732 -0.236 6.160 0.515 0.158 0.026 40.410 40.083
279.000 -12.059 -0.077 -12.059 -0.077 -12.054 -0.074 -12.264 -0.047 -12.279 -0.047 -12.326 -0.048 -12.690 -0.065 -12.719 -0.068 -12.721 -0.231 6.118 0.485 0.159 0.025 40.403 40.055
280.000 -12.022 -0.072 -12.022 -0.072 -12.018 -0.068 -12.247 -0.045 -12.263 -0.044 -12.311 -0.045 -12.676 -0.063 -12.705 -0.066 -12.697 -0.225 6.088 0.457 0.159 0.024 40.394 40.025
281.000 -11.990 -0.070 -11.990 -0.070 -11.987 -0.066 -12.230 -0.041 -12.246 -0.041 -12.295 -0.043 -12.654 -0.061 -12.680 -0.064 -12.661 -0.217 6.041 0.438 0.160 0.024 40.385 40.002
282.000 -11.963 -0.077 -11.963 -0.076 -11.961 -0.071 -12.212 -0.039 -12.228 -0.038 -12.277 -0.040 -12.623 -0.058 -12.646 -0.061 -12.611 -0.207 5.932 0.433 0.164 0.024 40.374 39.995
283.000 -11.942 -0.091 -11.942 -0.091 -11.940 -0.085 -12.193 -0.037 -12.208 -0.037 -12.256 -0.038 -12.582 -0.055 -12.601 -0.058 -12.549 -0.196 5.751 0.425 0.172 0.026 40.364 39.991
284.000 -11.927 -0.113 -11.927 -0.113 -11.925 -0.105 -12.172 -0.037 -12.187 -0.036 -12.233 -0.038 -12.532 -0.052 -12.546 -0.054 -12.474 -0.184 5.573 0.390 0.181 0.026 40.353 39.960
285.000 -11.918 -0.139 -11.918 -0.139 -11.915 -0.130 -12.150 -0.039 -12.165 -0.038 -12.208 -0.039 -12.474 -0.051 -12.483 -0.052 -12.390 -0.172 5.536 0.344 0.181 0.023 40.341 39.895
286.000 -11.913 -0.168 -11.913 -0.168 -11.910 -0.158 -12.127 -0.043 -12.141 -0.042 -12.180 -0.042 -12.409 -0.054 -12.413 -0.054 -12.298 -0.160 5.682 0.313 0.169 0.019 40.327 39.821
287.000 -11.912 -0.198 -11.912 -0.198 -11.908 -0.187 -12.103 -0.049 -12.115 -0.048 -12.151 -0.047 -12.341 -0.062 -12.339 -0.061 -12.203 -0.149 5.985 0.304 0.150 0.015 40.314 39.762
288.000 -11.915 -0.227 -11.915 -0.227 -11.910 -0.215 -12.079 -0.056 -12.090 -0.054 -12.122 -0.054 -12.272 -0.074 -12.264 -0.073 -12.108 -0.141 6.389 0.307 0.131 0.011 40.306 39.719
289.000 -11.920 -0.256 -11.920 -0.256 -11.914 -0.242 -12.055 -0.063 -12.065 -0.061 -12.092 -0.062 -12.205 -0.090 -12.192 -0.088 -12.018 -0.135 6.881 0.318 0.113 0.009 40.307 39.691
290.000 -11.926 -0.282 -11.926 -0.282 -11.919 -0.267 -12.033 -0.069 -12.041 -0.068 -12.065 -0.069 -12.143 -0.106 -12.126 -0.105 -11.936 -0.131 7.385 0.333 0.099 0.007 40.315 39.678
291.000 -11.934 -0.306 -11.933 -0.305 -11.925 -0.290 -12.012 -0.075 -12.019 -0.074 -12.040 -0.076 -12.091 -0.123 -12.070 -0.121 -11.867 -0.130 7.866 0.353 0.088 0.006 40.327 39.679
292.000 -11.941 -0.326 -11.941 -0.326 -11.932 -0.310 -11.995 -0.079 -12.001 -0.078 -12.019 -0.081 -12.049 -0.138 -12.026 -0.136 -11.813 -0.129 8.280 0.374 0.081 0.005 40.340 39.689
293.000 -11.948 -0.344 -11.948 -0.344 -11.938 -0.326 -11.982 -0.081 -11.987 -0.081 -12.003 -0.085 -12.021 -0.150 -11.996 -0.148 -11.778 -0.129 8.579 0.392 0.076 0.005 40.350 39.699
294.000 -11.955 -0.359 -11.955 -0.358 -11.944 -0.340 -11.972 -0.082 -11.978 -0.082 -11.993 -0.087 -12.007 -0.159 -11.982 -0.156 -11.763 -0.128 8.724 0.402 0.074 0.005 40.354 39.705
295.000 -11.961 -0.371 -11.961 -0.370 -11.949 -0.351 -11.967 -0.082 -11.973 -0.082 -11.988 -0.088 -12.007 -0.164 -11.983 -0.161 -11.767 -0.127 8.692 0.404 0.074 0.005 40.351 39.706
296.000 -11.967 -0.380 -11.966 -0.380 -11.953 -0.360 -11.967 -0.081 -11.972 -0.081 -11.988 -0.088 -12.021 -0.165 -11.999 -0.161 -11.791 -0.127 8.484 0.402 0.077 0.005 40.340 39.706
297.000 -11.972 -0.387 -11.971 -0.387 -11.958 -0.367 -11.970 -0.080 -11.976 -0.080 -11.993 -0.086 -12.047 -0.162 -12.028 -0.157 -11.832 -0.130 8.130 0.403 0.082 0.006 40.323 39.714
298.000 -11.976 -0.392 -11.976 -0.392 -11.962 -0.372 -11.975 -0.078 -11.982 -0.078 -12.002 -0.084 -12.082 -0.156 -12.068 -0.151 -11.887 -0.137 7.679 0.409 0.090 0.007 40.304 39.734
299.000 -11.980 -0.396 -11.980 -0.396 -11.965 -0.376 -11.983 -0.076 -11.990 -0.075 -12.012 -0.081 -12.124 -0.148 -12.114 -0.143 -11.953 -0.151 7.188 0.418 0.101 0.010 40.287 39.765
300.000 -11.984 -0.399 -11.984 -0.398 -11.969 -0.378 -11.990 -0.072 -11.998 -0.072 -12.022 -0.077 -12.167 -0.140 -12.163 -0.136 -12.025 -0.170 6.708 0.425 0.114 0.013 40.275 39.801
301.000 -11.988 -0.400 -11.988 -0.400 -11.972 -0.379 -11.997 -0.067 -12.005 -0.066 -12.032 -0.071 -12.210 -0.134 -12.212 -0.132 -12.100 -0.193 6.281 0.430 0.129 0.016 40.268 39.839
302.000 -11.993 -0.401 -11.993 -0.401 -11.977 -0.380 -12.001 -0.062 -12.010 -0.060 -12.039 -0.065 -12.248 -0.132 -12.256 -0.132 -12.172 -0.219 5.940 0.437 0.144 0.021 40.267 39.880
303.000 -11.998 -0.402 -11.998 -0.402 -11.981 -0.381 -12.003 -0.057 -12.012 -0.055 -12.042 -0.060 -12.279 -0.134 -12.292 -0.138 -12.239 -0.247 5.701 0.454 0.157 0.025 40.268 39.925
304.000 -12.004 -0.404 -12.004 -0.404 -11.987 -0.383 -12.001 -0.057 -12.011 -0.056 -12.041 -0.060 -12.299 -0.141 -12.318 -0.149 -12.296 -0.275 5.571 0.488 0.164 0.030 40.269 39.972
305.000 -12.011 -0.407 -12.011 -0.407 -11.993 -0.386 -11.995 -0.067 -12.005 -0.065 -12.035 -0.067 -12.308 -0.151 -12.332 -0.161 -12.342 -0.300 5.553 0.541 0.165 0.034 40.268 40.019
306.000 -12.019 -0.413 -12.019 -0.412 -12.001 -0.392 -11.986 -0.086 -11.995 -0.084 -12.023 -0.083 -12.305 -0.161 -12.333 -0.174 -12.375 -0.323 5.602 0.599 0.162 0.036 40.267 40.056
307.000 -12.029 -0.420 -12.029 -0.420 -12.010 -0.401 -11.973 -0.112 -11.981 -0.109 -12.008 -0.106 -12.290 -0.169 -12.322 -0.184 -12.394 -0.341 5.725 0.657 0.155 0.036 40.267 40.080
308.000 -12.041 -0.431 -12.041 -0.431 -12.021 -0.412 -11.958 -0.142 -11.965 -0.139 -11.989 -0.132 -12.265 -0.173 -12.299 -0.189 -12.401 -0.356 5.886 0.704 0.147 0.034 40.267 40.091
309.000 -12.054 -0.444 -12.054 -0.444 -12.033 -0.427 -11.941 -0.174 -11.947 -0.170 -11.967 -0.160 -12.230 -0.173 -12.266 -0.189 -12.395 -0.366 6.067 0.736 0.139 0.032 40.268 40.091
310.000 -12.069 -0.460 -12.069 -0.460 -12.047 -0.444 -11.924 -0.207 -11.929 -0.202 -11.945 -0.189 -12.189 -0.166 -12.226 -0.184 -12.378 -0.371 6.269 0.759 0.130 0.028 40.270 40.084
311.000 -12.085 -0.477 -12.085 -0.477 -12.063 -0.463 -11.908 -0.240 -11.911 -0.234 -11.922 -0.217 -12.143 -0.155 -12.180 -0.172 -12.354 -0.373 6.501 0.778 0.121 0.025 40.274 40.074
312.000 -12.103 -0.495 -12.102 -0.495 -12.079 -0.483 -11.893 -0.272 -11.895 -0.265 -11.902 -0.245 -12.095 -0.139 -12.133 -0.156 -12.324 -0.373 6.780 0.804 0.112 0.022 40.279 40.066
313.000 -12.121 -0.514 -12.121 -0.513 -12.097 -0.502 -11.882 -0.302 -11.881 -0.295 -11.884 -0.272 -12.049 -0.122 -12.086 -0.139 -12.291 -0.371 7.116 0.846 0.103 0.019 40.289 40.066
314.000 -12.140 -0.531 -12.139 -0.531 -12.116 -0.521 -11.873 -0.330 -11.871 -0.322 -11.869 -0.298 -12.006 -0.110 -12.041 -0.126 -12.257 -0.370 7.511 0.913 0.094 0.017 40.302 40.080
315.000 -12.158 -0.547 -12.158 -0.546 -12.134 -0.538 -11.868 -0.357 -11.865 -0.349 -11.859 -0.323 -11.968 -0.112 -12.001 -0.125 -12.225 -0.372 7.958 1.008 0.086 0.015 40.321 40.110
316.000 -12.175 -0.561 -12.175 -0.561 -12.151 -0.553 -11.866 -0.382 -11.862 -0.374 -11.852 -0.348 -11.935 -0.132 -11.967 -0.141 -12.196 -0.377 8.435 1.128 0.078 0.014 40.345 40.152
317.000 -12.191 -0.573 -12.190 -0.572 -12.166 -0.566 -11.867 -0.405 -11.862 -0.397 -11.849 -0.371 -11.910 -0.166 -11.940 -0.172 -12.172 -0.388 8.915 1.262 0.072 0.013 40.371 40.200
318.000 -12.203 -0.582 -12.203 -0.582 -12.179 -0.577 -11.870 -0.426 -11.865 -0.418 -11.850 -0.394 -11.891 -0.208 -11.920 -0.213 -12.152 -0.402 9.359 1.393 0.068 0.013 40.398 40.246
319.000 -12.212 -0.590 -12.212 -0.589 -12.188 -0.585 -11.875 -0.445 -11.868 -0.437 -11.852 -0.415 -11.879 -0.253 -11.906 -0.257 -12.137 -0.421 9.741 1.505 0.064 0.012 40.422 40.285
320.000 -12.217 -0.594 -12.216 -0.594 -12.193 -0.590 -11.878 -0.461 -11.872 -0.454 -11.854 -0.434 -11.872 -0.298 -11.898 -0.302 -12.126 -0.443 10.039 1.586 0.062 0.012 40.441 40.312
321.000 -12.216 -0.597 -12.215 -0.597 -12.192 -0.593 -11.880 -0.473 -11.874 -0.468 -11.856 -0.450 -11.868 -0.340 -11.893 -0.344 -12.120 -0.465 10.247 1.633 0.060 0.012 40.454 40.329
322.000 -12.208 -0.597 -12.208 -0.597 -12.185 -0.593 -11.879 -0.482 -11.873 -0.477 -11.855 -0.462 -11.867 -0.378 -11.891 -0.383 -12.115 -0.487 10.360 1.648 0.059 0.012 40.460 40.334
323.000 -12.195 -0.595 -12.194 -0.595 -12.172 -0.591 -11.874 -0.486 -11.868 -0.482 -11.851 -0.469 -11.865 -0.411 -11.890 -0.417 -12.111 -0.508 10.386 1.638 0.059 0.012 40.459 40.330
324.000 -12.174 -0.590 -12.173 -0.590 -12.151 -0.586 -11.863 -0.485 -11.857 -0.481 -11.841 -0.470 -11.862 -0.437 -11.887 -0.445 -12.107 -0.526 10.346 1.615 0.059 0.012 40.451 40.320
325.000 -12.146 -0.583 -12.145 -0.583 -12.123 -0.578 -11.845 -0.477 -11.840 -0.474 -11.826 -0.466 -11.856 -0.457 -11.881 -0.465 -12.101 -0.540 10.257 1.588 0.059 0.012 40.438 40.305
326.000 -12.110 -0.574 -12.110 -0.574 -12.087 -0.568 -11.820 -0.464 -11.815 -0.461 -11.803 -0.455 -11.845 -0.469 -11.871 -0.480 -12.092 -0.550 10.137 1.564 0.059 0.012 40.420 40.287
327.000 -12.067 -0.562 -12.067 -0.562 -12.045 -0.556 -11.787 -0.445 -11.783 -0.442 -11.773 -0.437 -11.828 -0.474 -11.856 -0.487 -12.078 -0.556 10.004 1.547 0.059 0.012 40.398 40.268
328.000 -12.018 -0.548 -12.018 -0.548 -11.995 -0.540 -11.748 -0.419 -11.744 -0.417 -11.736 -0.414 -11.805 -0.473 -11.834 -0.487 -12.058 -0.557 9.873 1.543 0.059 0.012 40.373 40.249
329.000 -11.963 -0.532 -11.963 -0.532 -11.940 -0.523 -11.701 -0.388 -11.698 -0.387 -11.692 -0.385 -11.775 -0.466 -11.805 -0.482 -12.033 -0.552 9.754 1.554 0.059 0.013 40.345 40.230
330.000 -11.904 -0.513 -11.903 -0.513 -11.880 -0.503 -11.648 -0.353 -11.646 -0.352 -11.641 -0.351 -11.739 -0.453 -11.769 -0.471 -12.002 -0.543 9.655 1.580 0.058 0.013 40.316 40.214
331.000 -11.841 -0.492 -11.840 -0.492 -11.816 -0.481 -11.590 -0.315 -11.589 -0.314 -11.586 -0.314 -11.696 -0.436 -11.728 -0.455 -11.965 -0.529 9.588 1.623 0.057 0.013 40.286 40.199
332.000 -11.776 -0.469 -11.775 -0.469 -11.751 -0.457 -11.529 -0.275 -11.528 -0.274 -11.527 -0.275 -11.647 -0.416 -11.680 -0.436 -11.922 -0.509 9.554 1.682 0.055 0.013 40.256 40.186
333.000 -11.711 -0.443 -11.710 -0.443 -11.685 -0.430 -11.466 -0.237 -11.465 -0.236 -11.465 -0.239 -11.594 -0.394 -11.628 -0.414 -11.875 -0.485 9.551 1.750 0.053 0.013 40.226 40.174
334.000 -11.647 -0.415 -11.646 -0.415 -11.620 -0.402 -11.403 -0.203 -11.403 -0.203 -11.404 -0.207 -11.538 -0.371 -11.573 -0.391 -11.824 -0.455 9.576 1.820 0.051 0.013 40.199 40.162
335.000 -11.586 -0.385 -11.586 -0.385 -11.559 -0.371 -11.342 -0.179 -11.341 -0.179 -11.343 -0.186 -11.481 -0.350 -11.516 -0.367 -11.771 -0.422 9.625 1.874 0.050 0.013 40.176 40.149
336.000 -11.530 -0.352 -11.530 -0.352 -11.502 -0.338 -11.284 -0.169 -11.283 -0.170 -11.285 -0.180 -11.423 -0.331 -11.458 -0.344 -11.716 -0.385 9.686 1.893 0.048 0.013 40.158 40.132
337.000 -11.481 -0.317 -11.480 -0.317 -11.452 -0.303 -11.231 -0.174 -11.230 -0.177 -11.232 -0.188 -11.366 -0.316 -11.401 -0.324 -11.661 -0.347 9.740 1.855 0.047 0.012 40.145 40.108
338.000 -11.439 -0.280 -11.439 -0.280 -11.410 -0.267 -11.184 -0.192 -11.183 -0.196 -11.184 -0.208 -11.312 -0.305 -11.346 -0.308 -11.608 -0.307 9.762 1.753 0.046 0.011 40.137 40.076
339.000 -11.407 -0.243 -11.407 -0.242 -11.378 -0.230 -11.145 -0.218 -11.144 -0.222 -11.144 -0.235 -11.262 -0.301 -11.295 -0.297 -11.557 -0.268 9.740 1.606 0.046 0.011 40.133 40.038
340.000 -11.385 -0.206 -11.384 -0.206 -11.355 -0.195 -11.114 -0.246 -11.112 -0.250 -11.111 -0.264 -11.217 -0.301 -11.248 -0.291 -11.510 -0.233 9.676 1.442 0.047 0.010 40.131 39.995
341.000 -11.373 -0.175 -11.372 -0.175 -11.343 -0.166 -11.092 -0.274 -11.090 -0.279 -11.087 -0.292 -11.177 -0.305 -11.207 -0.291 -11.469 -0.205 9.603 1.291 0.047 0.009 40.131 39.955
342.000 -11.372 -0.155 -11.372 -0.155 -11.342 -0.149 -11.079 -0.300 -11.077 -0.305 -11.071 -0.317 -11.144 -0.312 -11.172 -0.294 -11.432 -0.185 9.570 1.186 0.048 0.009 40.133 39.925
343.000 -11.382 -0.154 -11.382 -0.154 -11.352 -0.150 -11.076 -0.323 -11.073 -0.328 -11.065 -0.339 -11.118 -0.320 -11.144 -0.299 -11.402 -0.176 9.620 1.153 0.048 0.008 40.140 39.916
344.000 -11.403 -0.173 -11.402 -0.173 -11.372 -0.171 -11.082 -0.343 -11.078 -0.347 -11.067 -0.357 -11.098 -0.326 -11.123 -0.304 -11.380 -0.176 9.758 1.196 0.047 0.008 40.150 39.931
345.000 -11.433 -0.206 -11.432 -0.206 -11.402 -0.205 -11.096 -0.359 -11.091 -0.362 -11.078 -0.371 -11.087 -0.329 -11.109 -0.307 -11.364 -0.181 9.953 1.301 0.046 0.008 40.164 39.967
346.000 -11.472 -0.247 -11.472 -0.246 -11.442 -0.246 -11.119 -0.371 -11.113 -0.374 -11.097 -0.380 -11.083 -0.328 -11.103 -0.306 -11.356 -0.186 10.164 1.445 0.045 0.008 40.180 40.014
347.000 -11.519 -0.290 -11.519 -0.290 -11.489 -0.289 -11.150 -0.380 -11.143 -0.382 -11.123 -0.385 -11.086 -0.321 -11.105 -0.300 -11.355 -0.190 10.356 1.607 0.044 0.009 40.198 40.064
348.000 -11.573 -0.334 -11.572 -0.334 -11.543 -0.332 -11.187 -0.386 -11.179 -0.386 -11.156 -0.386 -11.098 -0.309 -11.114 -0.289 -11.362 -0.190 10.501 1.775 0.043 0.009 40.215 40.114
349.000 -11.632 -0.375 -11.631 -0.375 -11.602 -0.373 -11.231 -0.389 -11.222 -0.388 -11.196 -0.383 -11.117 -0.291 -11.132 -0.272 -11.377 -0.186 10.584 1.939 0.044 0.010 40.230 40.161
350.000 -11.694 -0.414 -11.694 -0.414 -11.665 -0.411 -11.281 -0.389 -11.270 -0.387 -11.242 -0.379 -11.143 -0.269 -11.156 -0.250 -11.399 -0.179 10.614 2.099 0.044 0.010 40.244 40.206
351.000 -11.760 -0.449 -11.759 -0.449 -11.731 -0.446 -11.335 -0.389 -11.324 -0.385 -11.293 -0.373 -11.177 -0.242 -11.189 -0.224 -11.428 -0.171 10.640 2.270 0.045 0.011 40.258 40.251
352.000 -11.827 -0.480 -11.826 -0.480 -11.798 -0.476 -11.393 -0.389 -11.382 -0.384 -11.349 -0.367 -11.217 -0.215 -11.228 -0.198 -11.463 -0.168 10.768 2.480 0.045 0.012 40.281 40.304
353.000 -11.894 -0.506 -11.893 -0.506 -11.866 -0.502 -11.456 -0.390 -11.443 -0.384 -11.409 -0.364 -11.265 -0.192 -11.275 -0.176 -11.505 -0.172 11.144 2.755 0.044 0.012 40.321 40.372
354.000 -11.960 -0.529 -11.960 -0.529 -11.933 -0.525 -11.521 -0.394 -11.508 -0.386 -11.473 -0.363 -11.319 -0.178 -11.328 -0.164 -11.552 -0.187 11.803 3.047 0.042 0.011 40.384 40.450
355.000 -12.025 -0.548 -12.025 -0.548 -11.999 -0.543 -11.589 -0.400 -11.576 -0.392 -11.539 -0.367 -11.380 -0.180 -11.388 -0.170 -11.605 -0.213 12.550 3.227 0.040 0.010 40.456 40.518
