"Time (MJD)" Misc/Atlas.cyan Misc/Atlas.cyan_err Misc/Atlas.orange Misc/Atlas.orange_err PAN-STARRS/PS1.g PAN-STARRS/PS1.g_err PAN-STARRS/PS1.i PAN-STARRS/PS1.i_err PAN-STARRS/PS1.r PAN-STARRS/PS1.r_err PAN-STARRS/PS1.w PAN-STARRS/PS1.w_err Palomar/ZTF.g Palomar/ZTF.g_err Palomar/ZTF.r Palomar/ZTF.r_err "Temp./1e3 (K)" "Temp. Err." "Radius/1e15 (cm)" "Radius Err." "Log10(Bol. Lum)" "Log10(Bol. Err)"
-8.000 -18.079 -0.065 -18.104 -0.065 -18.115 -0.087 -17.738 -0.073 -17.675 -0.064 -17.645 -0.060 -17.670 -0.075 -17.871 -0.271 25.469 5.003 0.344 0.053 43.551 43.477
-7.000 -18.120 -0.056 -18.147 -0.055 -18.169 -0.078 -17.815 -0.064 -17.756 -0.056 -17.729 -0.052 -17.756 -0.066 -17.936 -0.262 21.518 2.808 0.408 0.045 43.406 43.159
-6.000 -18.153 -0.048 -18.182 -0.047 -18.215 -0.070 -17.885 -0.056 -17.830 -0.048 -17.806 -0.044 -17.834 -0.059 -17.994 -0.254 18.543 1.717 0.479 0.041 43.286 42.896
-5.000 -18.177 -0.041 -18.209 -0.041 -18.253 -0.063 -17.948 -0.050 -17.897 -0.042 -17.876 -0.038 -17.905 -0.052 -18.046 -0.245 16.354 1.168 0.553 0.039 43.192 42.695
-4.000 -18.194 -0.036 -18.228 -0.035 -18.283 -0.057 -18.004 -0.045 -17.956 -0.037 -17.938 -0.033 -17.970 -0.046 -18.091 -0.237 14.659 0.779 0.631 0.036 43.117 42.499
-3.000 -18.204 -0.033 -18.239 -0.031 -18.306 -0.053 -18.052 -0.043 -18.009 -0.034 -17.994 -0.029 -18.027 -0.042 -18.130 -0.228 13.259 0.553 0.716 0.034 43.053 42.336
-2.000 -18.206 -0.030 -18.244 -0.028 -18.321 -0.051 -18.093 -0.041 -18.054 -0.033 -18.042 -0.027 -18.078 -0.038 -18.162 -0.220 12.130 0.415 0.806 0.033 43.001 42.206
-1.000 -18.202 -0.030 -18.242 -0.027 -18.329 -0.049 -18.127 -0.042 -18.092 -0.033 -18.084 -0.026 -18.121 -0.036 -18.189 -0.211 11.219 0.343 0.898 0.035 42.960 42.121
-0.000 -18.191 -0.030 -18.233 -0.028 -18.331 -0.049 -18.154 -0.043 -18.124 -0.034 -18.119 -0.027 -18.158 -0.034 -18.210 -0.202 10.434 0.279 0.996 0.036 42.923 42.035
1.000 -18.175 -0.031 -18.219 -0.029 -18.327 -0.051 -18.174 -0.045 -18.148 -0.036 -18.147 -0.028 -18.189 -0.034 -18.226 -0.194 9.779 0.254 1.095 0.040 42.893 41.998
2.000 -18.154 -0.033 -18.199 -0.031 -18.316 -0.052 -18.188 -0.048 -18.166 -0.038 -18.168 -0.030 -18.213 -0.033 -18.237 -0.186 9.241 0.237 1.192 0.046 42.868 41.975
3.000 -18.127 -0.035 -18.174 -0.033 -18.301 -0.055 -18.195 -0.050 -18.178 -0.040 -18.183 -0.031 -18.231 -0.034 -18.242 -0.177 8.767 0.216 1.290 0.049 42.846 41.940
4.000 -18.097 -0.037 -18.145 -0.035 -18.280 -0.057 -18.197 -0.053 -18.184 -0.042 -18.193 -0.033 -18.243 -0.034 -18.243 -0.169 8.373 0.206 1.384 0.055 42.826 41.929
5.000 -18.062 -0.038 -18.112 -0.037 -18.255 -0.060 -18.193 -0.055 -18.184 -0.044 -18.196 -0.034 -18.249 -0.034 -18.239 -0.161 8.029 0.192 1.474 0.059 42.808 41.906
6.000 -18.024 -0.040 -18.075 -0.038 -18.226 -0.062 -18.184 -0.057 -18.179 -0.045 -18.194 -0.035 -18.250 -0.035 -18.232 -0.154 7.733 0.186 1.559 0.064 42.792 41.895
7.000 -17.983 -0.041 -18.035 -0.040 -18.193 -0.064 -18.170 -0.059 -18.169 -0.047 -18.187 -0.036 -18.246 -0.035 -18.220 -0.146 7.479 0.173 1.637 0.067 42.776 41.867
8.000 -17.939 -0.042 -17.993 -0.041 -18.157 -0.066 -18.152 -0.060 -18.154 -0.047 -18.175 -0.036 -18.237 -0.036 -18.206 -0.139 7.251 0.165 1.711 0.071 42.761 41.851
9.000 -17.893 -0.043 -17.948 -0.042 -18.118 -0.068 -18.130 -0.061 -18.135 -0.048 -18.159 -0.037 -18.224 -0.036 -18.188 -0.132 7.061 0.157 1.775 0.074 42.746 41.832
10.000 -17.846 -0.044 -17.901 -0.042 -18.077 -0.069 -18.104 -0.061 -18.112 -0.048 -18.139 -0.037 -18.207 -0.036 -18.168 -0.126 6.896 0.150 1.829 0.075 42.731 41.810
11.000 -17.797 -0.044 -17.853 -0.042 -18.034 -0.070 -18.075 -0.061 -18.086 -0.048 -18.116 -0.036 -18.187 -0.036 -18.145 -0.119 6.742 0.146 1.881 0.078 42.717 41.796
12.000 -17.747 -0.044 -17.805 -0.042 -17.990 -0.071 -18.044 -0.061 -18.058 -0.047 -18.090 -0.036 -18.164 -0.036 -18.120 -0.113 6.614 0.133 1.921 0.076 42.702 41.755
13.000 -17.697 -0.044 -17.755 -0.042 -17.944 -0.071 -18.010 -0.060 -18.027 -0.046 -18.062 -0.035 -18.139 -0.035 -18.094 -0.108 6.499 0.131 1.956 0.078 42.687 41.742
14.000 -17.647 -0.044 -17.705 -0.041 -17.897 -0.071 -17.975 -0.059 -17.994 -0.045 -18.031 -0.034 -18.111 -0.035 -18.067 -0.102 6.396 0.124 1.984 0.078 42.672 41.716
15.000 -17.597 -0.043 -17.656 -0.041 -17.851 -0.071 -17.938 -0.057 -17.960 -0.044 -18.000 -0.033 -18.083 -0.035 -18.039 -0.097 6.303 0.120 2.008 0.077 42.656 41.692
16.000 -17.547 -0.043 -17.606 -0.040 -17.804 -0.070 -17.901 -0.056 -17.925 -0.043 -17.967 -0.032 -18.054 -0.034 -18.011 -0.092 6.225 0.113 2.024 0.075 42.642 41.658
17.000 -17.498 -0.042 -17.557 -0.039 -17.757 -0.069 -17.864 -0.054 -17.890 -0.041 -17.935 -0.031 -18.024 -0.034 -17.983 -0.088 6.145 0.110 2.041 0.076 42.627 41.641
18.000 -17.449 -0.042 -17.509 -0.038 -17.711 -0.068 -17.826 -0.052 -17.855 -0.039 -17.902 -0.030 -17.995 -0.034 -17.956 -0.084 6.085 0.115 2.047 0.082 42.612 41.654
19.000 -17.402 -0.041 -17.462 -0.036 -17.665 -0.067 -17.789 -0.049 -17.821 -0.037 -17.870 -0.029 -17.966 -0.034 -17.929 -0.080 6.009 0.099 2.066 0.073 42.598 41.582
20.000 -17.356 -0.041 -17.416 -0.036 -17.620 -0.066 -17.754 -0.047 -17.787 -0.036 -17.839 -0.029 -17.938 -0.034 -17.903 -0.076 5.955 0.095 2.070 0.071 42.584 41.555
21.000 -17.311 -0.041 -17.371 -0.035 -17.576 -0.065 -17.719 -0.045 -17.755 -0.034 -17.810 -0.028 -17.912 -0.035 -17.879 -0.073 5.893 0.103 2.083 0.080 42.572 41.587
22.000 -17.268 -0.041 -17.328 -0.035 -17.534 -0.064 -17.686 -0.043 -17.725 -0.033 -17.782 -0.028 -17.888 -0.035 -17.856 -0.070 5.831 0.091 2.098 0.071 42.559 41.522
23.000 -17.226 -0.042 -17.286 -0.035 -17.493 -0.064 -17.655 -0.042 -17.697 -0.032 -17.757 -0.028 -17.866 -0.036 -17.836 -0.067 5.772 0.096 2.114 0.077 42.548 41.542
24.000 -17.186 -0.043 -17.245 -0.036 -17.453 -0.064 -17.626 -0.041 -17.671 -0.032 -17.734 -0.028 -17.846 -0.036 -17.817 -0.064 5.704 0.097 2.140 0.081 42.538 41.545
25.000 -17.147 -0.045 -17.206 -0.038 -17.415 -0.065 -17.599 -0.041 -17.648 -0.032 -17.713 -0.029 -17.829 -0.037 -17.801 -0.062 5.630 0.089 2.175 0.077 42.530 41.507
26.000 -17.110 -0.048 -17.168 -0.040 -17.378 -0.066 -17.575 -0.041 -17.626 -0.032 -17.695 -0.030 -17.815 -0.038 -17.787 -0.060 5.565 0.099 2.207 0.087 42.522 41.549
27.000 -17.073 -0.051 -17.132 -0.043 -17.341 -0.068 -17.552 -0.042 -17.607 -0.034 -17.680 -0.031 -17.804 -0.039 -17.775 -0.058 5.488 0.090 2.253 0.085 42.516 41.516
28.000 -17.037 -0.054 -17.095 -0.046 -17.305 -0.071 -17.531 -0.044 -17.590 -0.035 -17.666 -0.033 -17.794 -0.041 -17.765 -0.057 5.419 0.100 2.298 0.097 42.511 41.561
29.000 -17.002 -0.058 -17.060 -0.050 -17.270 -0.074 -17.512 -0.047 -17.575 -0.038 -17.655 -0.035 -17.787 -0.042 -17.757 -0.056 5.341 0.101 2.354 0.102 42.507 41.570
30.000 -16.967 -0.062 -17.024 -0.055 -17.235 -0.078 -17.494 -0.050 -17.562 -0.040 -17.646 -0.036 -17.782 -0.043 -17.750 -0.056 5.269 0.109 2.413 0.115 42.505 41.605
31.000 -16.933 -0.066 -16.989 -0.059 -17.201 -0.082 -17.478 -0.054 -17.551 -0.043 -17.638 -0.038 -17.779 -0.044 -17.745 -0.055 5.176 0.098 2.496 0.111 42.504 41.571
32.000 -16.898 -0.071 -16.954 -0.064 -17.166 -0.087 -17.463 -0.058 -17.540 -0.047 -17.633 -0.041 -17.778 -0.046 -17.741 -0.056 5.109 0.107 2.558 0.126 42.502 41.614
33.000 -16.863 -0.075 -16.918 -0.069 -17.131 -0.092 -17.448 -0.062 -17.531 -0.050 -17.628 -0.043 -17.778 -0.047 -17.738 -0.056 5.023 0.097 2.649 0.123 42.503 41.587
34.000 -16.828 -0.080 -16.882 -0.074 -17.096 -0.097 -17.435 -0.067 -17.523 -0.053 -17.625 -0.045 -17.779 -0.048 -17.736 -0.056 4.954 0.109 2.724 0.144 42.503 41.642
35.000 -16.793 -0.085 -16.846 -0.079 -17.061 -0.102 -17.422 -0.071 -17.516 -0.057 -17.622 -0.047 -17.781 -0.049 -17.735 -0.057 4.875 0.103 2.820 0.146 42.505 41.630
36.000 -16.758 -0.090 -16.810 -0.084 -17.025 -0.107 -17.409 -0.076 -17.509 -0.060 -17.620 -0.049 -17.784 -0.050 -17.734 -0.057 4.798 0.101 2.918 0.152 42.507 41.633
37.000 -16.722 -0.095 -16.773 -0.089 -16.989 -0.112 -17.397 -0.080 -17.502 -0.064 -17.618 -0.051 -17.787 -0.051 -17.733 -0.057 4.725 0.100 3.016 0.162 42.509 41.645
38.000 -16.686 -0.100 -16.736 -0.094 -16.952 -0.117 -17.384 -0.085 -17.495 -0.067 -17.617 -0.053 -17.790 -0.052 -17.733 -0.057 4.661 0.100 3.108 0.171 42.512 41.656
39.000 -16.650 -0.105 -16.699 -0.099 -16.915 -0.122 -17.371 -0.089 -17.489 -0.070 -17.615 -0.055 -17.793 -0.053 -17.732 -0.057 4.597 0.102 3.203 0.181 42.514 41.672
40.000 -16.613 -0.109 -16.661 -0.104 -16.878 -0.127 -17.358 -0.092 -17.481 -0.073 -17.612 -0.057 -17.795 -0.054 -17.730 -0.057 4.542 0.099 3.287 0.185 42.515 41.669
41.000 -16.576 -0.115 -16.624 -0.109 -16.840 -0.132 -17.344 -0.096 -17.473 -0.075 -17.609 -0.058 -17.797 -0.055 -17.728 -0.056 4.488 0.099 3.372 0.193 42.517 41.677
42.000 -16.540 -0.120 -16.586 -0.114 -16.802 -0.137 -17.330 -0.099 -17.465 -0.077 -17.605 -0.059 -17.797 -0.056 -17.726 -0.055 4.439 0.098 3.452 0.201 42.518 41.684
43.000 -16.503 -0.125 -16.548 -0.119 -16.764 -0.141 -17.315 -0.102 -17.455 -0.079 -17.600 -0.060 -17.796 -0.057 -17.722 -0.054 4.394 0.097 3.523 0.204 42.518 41.682
44.000 -16.467 -0.130 -16.511 -0.124 -16.726 -0.146 -17.299 -0.104 -17.444 -0.080 -17.594 -0.061 -17.794 -0.057 -17.717 -0.053 4.361 0.108 3.569 0.231 42.516 41.729
45.000 -16.432 -0.136 -16.474 -0.130 -16.688 -0.151 -17.281 -0.106 -17.432 -0.081 -17.586 -0.061 -17.790 -0.058 -17.710 -0.052 4.321 0.096 3.633 0.214 42.516 41.684
46.000 -16.397 -0.142 -16.437 -0.136 -16.651 -0.155 -17.263 -0.108 -17.418 -0.082 -17.576 -0.061 -17.783 -0.059 -17.703 -0.051 4.309 0.110 3.635 0.243 42.511 41.737
47.000 -16.362 -0.149 -16.402 -0.142 -16.614 -0.160 -17.244 -0.109 -17.404 -0.082 -17.565 -0.061 -17.775 -0.060 -17.694 -0.050 4.284 0.109 3.660 0.245 42.507 41.732
48.000 -16.329 -0.155 -16.367 -0.149 -16.578 -0.165 -17.224 -0.110 -17.387 -0.082 -17.552 -0.061 -17.765 -0.061 -17.683 -0.050 4.259 0.110 3.692 0.253 42.504 41.740
49.000 -16.297 -0.163 -16.334 -0.156 -16.542 -0.170 -17.203 -0.111 -17.370 -0.082 -17.537 -0.060 -17.752 -0.062 -17.670 -0.050 4.241 0.111 3.704 0.253 42.500 41.736
50.000 -16.267 -0.171 -16.302 -0.164 -16.507 -0.175 -17.181 -0.111 -17.351 -0.081 -17.520 -0.059 -17.738 -0.063 -17.656 -0.050 4.224 0.111 3.715 0.257 42.496 41.736
51.000 -16.238 -0.179 -16.272 -0.172 -16.474 -0.181 -17.158 -0.111 -17.330 -0.081 -17.502 -0.059 -17.721 -0.065 -17.641 -0.051 4.214 0.123 3.704 0.287 42.489 41.777
52.000 -16.211 -0.188 -16.243 -0.181 -16.442 -0.187 -17.134 -0.111 -17.308 -0.080 -17.482 -0.059 -17.701 -0.068 -17.623 -0.053 4.181 0.106 3.752 0.253 42.486 41.714
53.000 -16.186 -0.197 -16.216 -0.190 -16.412 -0.193 -17.109 -0.111 -17.285 -0.080 -17.460 -0.059 -17.680 -0.071 -17.604 -0.055 4.184 0.126 3.712 0.298 42.478 41.781
54.000 -16.162 -0.207 -16.191 -0.200 -16.383 -0.200 -17.084 -0.112 -17.261 -0.080 -17.436 -0.060 -17.656 -0.074 -17.583 -0.058 4.173 0.123 3.697 0.292 42.470 41.766
55.000 -16.141 -0.217 -16.169 -0.210 -16.356 -0.207 -17.059 -0.113 -17.236 -0.081 -17.411 -0.062 -17.630 -0.078 -17.561 -0.060 4.163 0.134 3.678 0.316 42.462 41.794
56.000 -16.122 -0.227 -16.148 -0.220 -16.331 -0.215 -17.033 -0.115 -17.210 -0.082 -17.384 -0.066 -17.603 -0.083 -17.537 -0.064 4.162 0.137 3.641 0.324 42.453 41.798
57.000 -16.106 -0.238 -16.130 -0.231 -16.308 -0.223 -17.007 -0.117 -17.183 -0.085 -17.356 -0.070 -17.573 -0.089 -17.512 -0.067 4.157 0.133 3.608 0.315 42.442 41.778
58.000 -16.091 -0.249 -16.115 -0.242 -16.288 -0.232 -16.980 -0.121 -17.156 -0.090 -17.327 -0.076 -17.543 -0.095 -17.486 -0.070 4.183 0.156 3.500 0.353 42.427 41.827
59.000 -16.080 -0.261 -16.101 -0.254 -16.269 -0.241 -16.954 -0.125 -17.128 -0.095 -17.297 -0.083 -17.510 -0.102 -17.459 -0.074 4.190 0.166 3.437 0.362 42.414 41.835
60.000 -16.070 -0.272 -16.091 -0.265 -16.253 -0.250 -16.928 -0.131 -17.099 -0.102 -17.267 -0.092 -17.476 -0.109 -17.430 -0.077 4.217 0.183 3.326 0.383 42.396 41.857
61.000 -16.063 -0.284 -16.082 -0.277 -16.238 -0.260 -16.902 -0.138 -17.071 -0.111 -17.235 -0.101 -17.442 -0.117 -17.401 -0.080 4.235 0.190 3.245 0.383 42.383 41.855
62.000 -16.059 -0.295 -16.076 -0.288 -16.226 -0.269 -16.877 -0.146 -17.042 -0.120 -17.204 -0.111 -17.406 -0.126 -17.371 -0.082 4.272 0.214 3.125 0.404 42.365 41.879
63.000 -16.056 -0.306 -16.073 -0.300 -16.217 -0.279 -16.852 -0.155 -17.014 -0.131 -17.172 -0.123 -17.370 -0.135 -17.340 -0.085 4.322 0.224 2.983 0.394 42.345 41.870
64.000 -16.056 -0.318 -16.071 -0.311 -16.209 -0.290 -16.827 -0.166 -16.985 -0.142 -17.140 -0.135 -17.333 -0.145 -17.309 -0.087 4.362 0.238 2.879 0.402 42.330 41.880
65.000 -16.058 -0.329 -16.072 -0.323 -16.204 -0.300 -16.804 -0.177 -16.957 -0.155 -17.108 -0.147 -17.296 -0.155 -17.277 -0.090 4.409 0.251 2.758 0.395 42.311 41.874
66.000 -16.062 -0.340 -16.074 -0.334 -16.200 -0.310 -16.781 -0.188 -16.930 -0.168 -17.076 -0.160 -17.259 -0.165 -17.246 -0.092 4.455 0.270 2.652 0.398 42.295 41.882
67.000 -16.067 -0.350 -16.079 -0.344 -16.198 -0.320 -16.759 -0.201 -16.903 -0.181 -17.044 -0.174 -17.222 -0.176 -17.214 -0.095 4.529 0.291 2.512 0.393 42.277 41.884
68.000 -16.075 -0.360 -16.085 -0.355 -16.198 -0.330 -16.738 -0.213 -16.877 -0.195 -17.013 -0.187 -17.185 -0.187 -17.182 -0.098 4.569 0.311 2.428 0.396 42.263 41.891
69.000 -16.084 -0.370 -16.093 -0.365 -16.200 -0.340 -16.718 -0.227 -16.852 -0.209 -16.983 -0.201 -17.149 -0.198 -17.150 -0.102 4.615 0.295 2.346 0.367 42.250 41.857
70.000 -16.094 -0.379 -16.103 -0.374 -16.204 -0.350 -16.699 -0.240 -16.827 -0.223 -16.953 -0.215 -17.113 -0.210 -17.119 -0.106 4.726 0.358 2.186 0.393 42.230 41.902
71.000 -16.105 -0.388 -16.113 -0.383 -16.208 -0.359 -16.681 -0.253 -16.804 -0.237 -16.924 -0.229 -17.078 -0.221 -17.088 -0.111 4.807 0.397 2.083 0.391 42.218 41.917
