"Time (MJD)" "Temp./1e3 (K)" "Temp. Err." "Radius/1e15 (cm)" "Radius Err." "Bol. Lum" "Bol. Err"
-34.909 5.882 0.122 0.545 0.025 41.404 39.496
-33.900 5.754 0.115 0.571 0.025 41.407 39.528
-32.891 5.947 0.072 0.524 0.013 41.388 39.309
-31.883 5.904 0.070 0.532 0.013 41.388 39.308
-30.874 5.861 0.069 0.539 0.013 41.388 39.308
-29.865 5.776 0.066 0.554 0.013 41.386 39.307
-28.856 5.693 0.064 0.568 0.013 41.383 39.308
-27.847 5.612 0.061 0.583 0.014 41.381 39.311
-26.838 5.533 0.059 0.599 0.014 41.379 39.316
-25.829 5.457 0.057 0.615 0.014 41.378 39.322
-24.820 5.388 0.042 0.633 0.011 41.382 39.241
-23.811 5.347 0.041 0.643 0.011 41.382 39.245
-22.802 5.319 0.032 0.645 0.009 41.375 39.170
-21.793 5.263 0.031 0.660 0.009 41.377 39.175
-20.784 5.208 0.030 0.676 0.009 41.379 39.180
-19.775 5.197 0.033 0.675 0.010 41.375 39.218
-18.766 5.139 0.032 0.693 0.010 41.377 39.221
-17.757 5.088 0.031 0.709 0.010 41.380 39.224
-16.748 5.054 0.030 0.719 0.010 41.381 39.224
-15.739 5.021 0.029 0.730 0.010 41.382 39.224
-14.730 4.989 0.028 0.740 0.010 41.384 39.225
-13.721 4.957 0.027 0.751 0.010 41.385 39.225
-12.712 4.925 0.027 0.762 0.010 41.386 39.225
-11.703 4.895 0.026 0.773 0.010 41.388 39.225
-10.694 4.867 0.025 0.782 0.010 41.388 39.225
-9.685 4.825 0.025 0.798 0.010 41.391 39.228
-8.676 4.784 0.024 0.814 0.010 41.393 39.232
-7.667 4.743 0.024 0.831 0.010 41.396 39.236
-6.658 4.703 0.023 0.848 0.010 41.399 39.240
-5.649 4.665 0.022 0.865 0.010 41.402 39.244
-4.640 4.627 0.022 0.882 0.010 41.405 39.248
-3.631 4.613 0.023 0.890 0.011 41.407 39.254
-2.622 4.592 0.023 0.898 0.011 41.407 39.253
-1.613 4.571 0.022 0.906 0.011 41.407 39.252
-0.604 4.546 0.022 0.916 0.011 41.407 39.252
0.405 4.527 0.022 0.924 0.011 41.407 39.249
1.414 4.502 0.021 0.934 0.011 41.407 39.249
2.422 4.461 0.020 0.952 0.011 41.408 39.252
3.431 4.436 0.020 0.963 0.011 41.408 39.252
4.440 4.414 0.020 0.972 0.011 41.408 39.252
5.449 4.398 0.020 0.979 0.011 41.407 39.251
6.458 4.381 0.019 0.986 0.011 41.407 39.250
7.467 4.365 0.019 0.992 0.011 41.406 39.249
8.476 4.349 0.019 0.999 0.011 41.405 39.248
9.485 4.333 0.019 1.006 0.011 41.405 39.248
10.494 4.311 0.018 1.018 0.012 41.407 39.251
11.503 4.289 0.018 1.031 0.012 41.409 39.254
12.512 4.268 0.018 1.043 0.012 41.411 39.258
13.521 4.247 0.018 1.056 0.012 41.413 39.261
14.530 4.227 0.018 1.069 0.012 41.415 39.265
15.539 4.207 0.017 1.082 0.012 41.417 39.269
16.548 4.187 0.017 1.095 0.012 41.419 39.274
17.557 4.169 0.017 1.105 0.012 41.420 39.276
18.566 4.160 0.017 1.109 0.012 41.419 39.267
19.575 4.140 0.017 1.124 0.012 41.422 39.273
20.584 4.143 0.017 1.115 0.012 41.416 39.265
21.593 4.138 0.017 1.113 0.012 41.413 39.262
22.602 4.119 0.017 1.126 0.012 41.415 39.268
23.611 4.104 0.016 1.134 0.012 41.415 39.271
24.620 4.098 0.016 1.132 0.012 41.411 39.268
25.629 4.093 0.016 1.130 0.012 41.407 39.265
26.638 4.089 0.016 1.127 0.012 41.403 39.262
27.647 4.084 0.016 1.125 0.012 41.399 39.260
28.656 4.079 0.016 1.123 0.012 41.395 39.257
29.665 4.074 0.016 1.120 0.012 41.391 39.254
30.674 4.071 0.016 1.116 0.012 41.387 39.251
31.683 4.067 0.017 1.111 0.012 41.381 39.248
32.692 4.072 0.017 1.100 0.012 41.374 39.242
33.701 4.076 0.017 1.089 0.012 41.368 39.235
34.710 4.080 0.017 1.078 0.012 41.361 39.229
35.718 4.084 0.017 1.068 0.012 41.355 39.223
36.727 4.088 0.017 1.058 0.012 41.348 39.217
37.736 4.092 0.017 1.048 0.012 41.341 39.211
38.745 4.096 0.017 1.038 0.012 41.335 39.205
39.754 4.100 0.017 1.028 0.012 41.328 39.199
40.763 4.103 0.017 1.019 0.012 41.321 39.193
41.772 4.106 0.018 1.009 0.012 41.315 39.187
42.781 4.110 0.018 1.000 0.012 41.308 39.181
43.790 4.113 0.018 0.991 0.012 41.301 39.175
44.799 4.115 0.018 0.982 0.012 41.294 39.169
45.808 4.118 0.018 0.973 0.012 41.288 39.164
46.817 4.121 0.018 0.964 0.011 41.281 39.158
47.826 4.186 0.025 0.910 0.014 41.258 39.193
48.835 4.179 0.025 0.907 0.014 41.252 39.190
49.844 4.178 0.025 0.900 0.014 41.245 39.185
50.853 4.176 0.025 0.894 0.014 41.239 39.180
51.862 4.174 0.025 0.888 0.014 41.232 39.175
52.871 4.172 0.025 0.881 0.014 41.225 39.170
53.880 4.170 0.025 0.870 0.014 41.212 39.161
54.889 4.166 0.025 0.856 0.014 41.196 39.150
55.898 4.149 0.025 0.847 0.014 41.181 39.144
56.907 4.143 0.026 0.834 0.014 41.164 39.134
57.916 4.135 0.026 0.821 0.014 41.148 39.124
58.925 4.126 0.026 0.809 0.014 41.131 39.115
59.934 4.101 0.028 0.804 0.015 41.115 39.153
60.943 4.099 0.028 0.787 0.015 41.095 39.140
61.952 4.098 0.029 0.767 0.015 41.073 39.125
62.961 4.056 0.028 0.747 0.014 41.032 39.099
63.970 3.962 0.028 0.743 0.015 40.987 39.080
64.979 3.991 0.031 0.672 0.015 40.912 39.033
65.988 3.859 0.030 0.657 0.015 40.835 38.994
66.997 3.646 0.027 0.676 0.015 40.760 38.970
68.006 3.534 0.026 0.689 0.016 40.723 38.956
69.014 3.462 0.025 0.708 0.016 40.710 38.955
70.023 3.399 0.024 0.721 0.016 40.695 38.949
71.032 3.696 0.044 0.573 0.020 40.639 39.036
72.041 3.555 0.040 0.566 0.020 40.561 38.979
73.050 3.505 0.039 0.570 0.020 40.544 38.965
74.059 3.502 0.039 0.568 0.019 40.539 38.957
75.068 3.498 0.038 0.566 0.019 40.534 38.950
76.077 3.494 0.038 0.564 0.019 40.529 38.943
77.086 3.490 0.037 0.562 0.019 40.524 38.936
78.095 3.486 0.037 0.561 0.019 40.519 38.929
79.104 3.482 0.037 0.559 0.018 40.515 38.922
80.113 3.477 0.036 0.557 0.018 40.510 38.916
81.122 3.473 0.036 0.556 0.018 40.505 38.909
82.131 3.470 0.036 0.554 0.018 40.501 38.902
83.140 3.467 0.035 0.552 0.018 40.497 38.896
84.149 3.463 0.035 0.551 0.017 40.493 38.890
85.158 3.460 0.034 0.550 0.017 40.489 38.884
86.167 3.456 0.034 0.549 0.017 40.486 38.878
87.176 3.451 0.034 0.548 0.017 40.482 38.872
88.185 3.447 0.033 0.547 0.017 40.478 38.867
89.194 3.442 0.033 0.546 0.017 40.475 38.862
90.203 3.436 0.033 0.546 0.017 40.471 38.857
91.212 3.431 0.032 0.545 0.016 40.468 38.853
92.221 3.425 0.032 0.545 0.016 40.464 38.849
93.230 3.418 0.032 0.545 0.016 40.461 38.845
94.239 3.411 0.032 0.545 0.016 40.458 38.842
95.248 3.404 0.031 0.546 0.016 40.455 38.839
96.257 3.396 0.031 0.547 0.016 40.452 38.837
97.266 3.388 0.031 0.548 0.016 40.450 38.835
98.275 3.379 0.031 0.549 0.016 40.447 38.834
99.284 3.450 0.035 0.514 0.016 40.426 38.829
100.293 3.451 0.035 0.512 0.016 40.423 38.827
101.302 3.452 0.035 0.509 0.016 40.419 38.826
102.310 3.453 0.035 0.507 0.016 40.415 38.825
103.319 3.455 0.036 0.504 0.016 40.412 38.825
104.328 3.456 0.036 0.502 0.017 40.408 38.824
105.337 3.458 0.036 0.499 0.017 40.405 38.824
106.346 3.459 0.037 0.497 0.017 40.401 38.825
107.355 3.461 0.037 0.494 0.017 40.397 38.825
108.364 3.462 0.038 0.492 0.017 40.394 38.826
109.373 3.464 0.038 0.489 0.017 40.390 38.827
110.382 3.466 0.038 0.486 0.017 40.386 38.829
111.391 3.468 0.039 0.484 0.017 40.382 38.830
112.400 3.470 0.040 0.481 0.017 40.379 38.832
113.409 3.472 0.040 0.478 0.018 40.375 38.834
114.418 3.474 0.041 0.476 0.018 40.371 38.836
115.427 3.476 0.042 0.473 0.018 40.367 38.838
116.436 3.478 0.042 0.471 0.018 40.364 38.841
117.445 3.481 0.043 0.468 0.018 40.360 38.844
118.454 3.483 0.044 0.465 0.018 40.356 38.847
119.463 3.485 0.044 0.463 0.019 40.352 38.850
120.472 3.487 0.045 0.460 0.019 40.348 38.853
121.481 3.489 0.046 0.458 0.019 40.345 38.856
122.490 3.491 0.047 0.455 0.019 40.341 38.860
123.499 3.493 0.048 0.453 0.020 40.337 38.863
124.508 3.495 0.049 0.450 0.020 40.333 38.867
125.517 3.497 0.050 0.448 0.020 40.329 38.871
126.526 3.499 0.051 0.445 0.020 40.325 38.875
127.535 3.501 0.052 0.443 0.021 40.322 38.879
