"Time (MJD)" PAN-STARRS/PS1.g PAN-STARRS/PS1.g_err PAN-STARRS/PS1.i PAN-STARRS/PS1.i_err PAN-STARRS/PS1.r PAN-STARRS/PS1.r_err PAN-STARRS/PS1.z PAN-STARRS/PS1.z_err Palomar/ZTF.g Palomar/ZTF.g_err Palomar/ZTF.r Palomar/ZTF.r_err "Temp./1e3 (K)" "Temp. Err." "Radius/1e15 (cm)" "Radius Err." "Log10(Bol. Lum)" "Log10(Bol. Err)"
-9.000 -16.900 -0.090 -16.889 -0.089 -16.573 -0.099 -16.510 -0.101 -16.022 -0.164 -15.440 -0.352 22.127 7.887 0.221 0.067 42.922 43.112
-8.000 -17.452 -0.053 -17.444 -0.052 -17.164 -0.063 -17.105 -0.064 -16.638 -0.136 -16.061 -0.328 23.511 6.604 0.275 0.065 43.217 43.303
-7.000 -17.851 -0.033 -17.845 -0.032 -17.608 -0.042 -17.555 -0.042 -17.121 -0.123 -16.572 -0.310 17.562 2.619 0.437 0.065 43.111 42.935
-6.000 -18.110 -0.025 -18.107 -0.024 -17.914 -0.031 -17.868 -0.032 -17.480 -0.116 -16.977 -0.290 14.605 1.314 0.604 0.060 43.072 42.687
-5.000 -18.251 -0.023 -18.251 -0.023 -18.103 -0.025 -18.065 -0.026 -17.731 -0.107 -17.285 -0.264 12.802 0.786 0.759 0.056 43.042 42.499
-4.000 -18.303 -0.024 -18.305 -0.023 -18.202 -0.022 -18.171 -0.023 -17.896 -0.096 -17.513 -0.233 11.544 0.513 0.894 0.051 43.005 42.330
-3.000 -18.296 -0.023 -18.299 -0.023 -18.238 -0.021 -18.215 -0.021 -17.997 -0.083 -17.679 -0.196 10.617 0.342 1.007 0.044 42.963 42.156
-2.000 -18.256 -0.022 -18.261 -0.022 -18.238 -0.020 -18.222 -0.020 -18.057 -0.068 -17.800 -0.155 9.916 0.222 1.100 0.035 42.921 41.963
-1.000 -18.207 -0.021 -18.213 -0.020 -18.223 -0.019 -18.213 -0.019 -18.094 -0.053 -17.890 -0.115 9.376 0.134 1.178 0.025 42.883 41.738
-0.000 -18.162 -0.020 -18.169 -0.019 -18.207 -0.018 -18.202 -0.018 -18.121 -0.041 -17.959 -0.080 8.956 0.073 1.248 0.016 42.854 41.467
1.000 -18.129 -0.021 -18.137 -0.019 -18.197 -0.019 -18.197 -0.019 -18.144 -0.037 -18.014 -0.062 8.624 0.043 1.314 0.010 42.833 41.240
2.000 -18.110 -0.023 -18.119 -0.022 -18.196 -0.022 -18.198 -0.023 -18.166 -0.043 -18.055 -0.072 8.378 0.050 1.373 0.013 42.820 41.306
3.000 -18.099 -0.028 -18.108 -0.027 -18.200 -0.028 -18.204 -0.029 -18.185 -0.054 -18.084 -0.095 8.208 0.058 1.419 0.017 42.814 41.379
4.000 -18.090 -0.035 -18.100 -0.033 -18.203 -0.036 -18.209 -0.038 -18.196 -0.067 -18.097 -0.118 8.094 0.058 1.452 0.018 42.809 41.388
5.000 -18.076 -0.042 -18.087 -0.041 -18.201 -0.044 -18.208 -0.046 -18.198 -0.077 -18.096 -0.137 7.986 0.054 1.480 0.017 42.803 41.359
6.000 -18.052 -0.050 -18.064 -0.048 -18.188 -0.050 -18.196 -0.052 -18.189 -0.085 -18.080 -0.148 7.894 0.052 1.498 0.017 42.793 41.336
7.000 -18.014 -0.058 -18.027 -0.055 -18.164 -0.054 -18.173 -0.056 -18.168 -0.087 -18.053 -0.151 7.795 0.056 1.510 0.019 42.778 41.355
8.000 -17.962 -0.063 -17.976 -0.061 -18.129 -0.055 -18.139 -0.057 -18.138 -0.086 -18.019 -0.148 7.677 0.064 1.521 0.022 42.758 41.402
9.000 -17.899 -0.066 -17.915 -0.063 -18.085 -0.053 -18.097 -0.055 -18.104 -0.080 -17.983 -0.140 7.530 0.073 1.537 0.026 42.733 41.446
10.000 -17.828 -0.067 -17.845 -0.063 -18.037 -0.049 -18.052 -0.050 -18.069 -0.071 -17.950 -0.127 7.356 0.081 1.562 0.030 42.707 41.472
11.000 -17.754 -0.064 -17.773 -0.061 -17.990 -0.042 -18.007 -0.043 -18.039 -0.061 -17.923 -0.112 7.157 0.085 1.601 0.034 42.680 41.482
12.000 -17.682 -0.059 -17.703 -0.055 -17.946 -0.036 -17.967 -0.036 -18.015 -0.050 -17.907 -0.096 6.946 0.087 1.653 0.037 42.656 41.484
13.000 -17.614 -0.052 -17.637 -0.049 -17.909 -0.031 -17.933 -0.030 -17.999 -0.042 -17.899 -0.080 6.735 0.088 1.716 0.041 42.635 41.486
14.000 -17.552 -0.046 -17.577 -0.043 -17.879 -0.028 -17.907 -0.028 -17.990 -0.036 -17.898 -0.065 6.542 0.089 1.785 0.046 42.619 41.490
15.000 -17.498 -0.040 -17.525 -0.038 -17.856 -0.029 -17.887 -0.029 -17.986 -0.035 -17.901 -0.055 6.374 0.088 1.853 0.050 42.606 41.493
16.000 -17.450 -0.037 -17.479 -0.035 -17.838 -0.030 -17.872 -0.030 -17.984 -0.037 -17.903 -0.056 6.221 0.084 1.923 0.053 42.596 41.484
17.000 -17.407 -0.036 -17.438 -0.034 -17.823 -0.030 -17.860 -0.030 -17.982 -0.041 -17.900 -0.070 6.080 0.077 1.997 0.054 42.589 41.458
18.000 -17.368 -0.035 -17.401 -0.034 -17.809 -0.028 -17.848 -0.029 -17.976 -0.048 -17.889 -0.092 5.961 0.071 2.063 0.053 42.583 41.429
19.000 -17.332 -0.036 -17.367 -0.034 -17.795 -0.026 -17.835 -0.027 -17.965 -0.056 -17.868 -0.118 5.863 0.068 2.118 0.054 42.577 41.414
20.000 -17.297 -0.036 -17.334 -0.034 -17.780 -0.024 -17.821 -0.025 -17.948 -0.066 -17.838 -0.144 5.780 0.069 2.164 0.057 42.571 41.423
21.000 -17.262 -0.036 -17.300 -0.034 -17.763 -0.022 -17.804 -0.024 -17.927 -0.074 -17.799 -0.166 5.709 0.074 2.202 0.064 42.565 41.457
22.000 -17.226 -0.037 -17.266 -0.035 -17.745 -0.023 -17.786 -0.025 -17.903 -0.080 -17.756 -0.183 5.647 0.084 2.232 0.075 42.557 41.512
23.000 -17.189 -0.038 -17.231 -0.036 -17.725 -0.024 -17.768 -0.026 -17.877 -0.083 -17.710 -0.192 5.592 0.098 2.256 0.091 42.550 41.579
24.000 -17.151 -0.039 -17.195 -0.037 -17.706 -0.026 -17.748 -0.027 -17.852 -0.082 -17.667 -0.193 5.538 0.115 2.279 0.110 42.542 41.646
25.000 -17.111 -0.040 -17.157 -0.037 -17.686 -0.027 -17.729 -0.027 -17.829 -0.076 -17.627 -0.186 5.486 0.134 2.301 0.131 42.533 41.709
26.000 -17.069 -0.040 -17.117 -0.038 -17.666 -0.028 -17.710 -0.027 -17.808 -0.065 -17.593 -0.171 5.440 0.154 2.315 0.154 42.524 41.768
27.000 -17.027 -0.041 -17.076 -0.039 -17.646 -0.031 -17.692 -0.029 -17.791 -0.052 -17.566 -0.149 5.417 0.179 2.304 0.179 42.513 41.822
28.000 -16.984 -0.045 -17.036 -0.042 -17.626 -0.036 -17.674 -0.035 -17.776 -0.040 -17.545 -0.124 5.427 0.203 2.257 0.196 42.498 41.858
29.000 -16.943 -0.052 -16.996 -0.049 -17.607 -0.044 -17.657 -0.043 -17.765 -0.036 -17.529 -0.100 5.450 0.239 2.198 0.218 42.483 41.905
30.000 -16.905 -0.065 -16.960 -0.061 -17.590 -0.054 -17.641 -0.054 -17.755 -0.045 -17.519 -0.085 5.514 0.300 2.108 0.253 42.466 41.977
31.000 -16.872 -0.082 -16.928 -0.077 -17.576 -0.063 -17.628 -0.064 -17.748 -0.059 -17.512 -0.084 5.563 0.343 2.042 0.273 42.454 42.015
32.000 -16.846 -0.102 -16.904 -0.096 -17.564 -0.070 -17.619 -0.071 -17.744 -0.072 -17.508 -0.097 5.549 0.360 2.044 0.287 42.451 42.033
33.000 -16.828 -0.125 -16.886 -0.117 -17.558 -0.075 -17.613 -0.076 -17.743 -0.082 -17.508 -0.115 5.513 0.370 2.076 0.301 42.453 42.050
34.000 -16.816 -0.148 -16.875 -0.139 -17.555 -0.077 -17.612 -0.077 -17.745 -0.087 -17.511 -0.132 5.481 0.378 2.112 0.313 42.458 42.065
35.000 -16.810 -0.169 -16.870 -0.159 -17.557 -0.075 -17.614 -0.074 -17.751 -0.088 -17.518 -0.149 5.455 0.383 2.150 0.323 42.465 42.079
36.000 -16.806 -0.188 -16.866 -0.177 -17.560 -0.070 -17.618 -0.067 -17.759 -0.085 -17.528 -0.164 5.425 0.382 2.193 0.330 42.473 42.088
37.000 -16.800 -0.203 -16.861 -0.191 -17.563 -0.065 -17.622 -0.060 -17.769 -0.083 -17.542 -0.178 5.382 0.373 2.247 0.334 42.480 42.089
38.000 -16.787 -0.214 -16.849 -0.200 -17.562 -0.061 -17.622 -0.055 -17.778 -0.083 -17.558 -0.193 5.315 0.356 2.319 0.337 42.485 42.082
39.000 -16.764 -0.219 -16.826 -0.205 -17.554 -0.060 -17.616 -0.053 -17.785 -0.087 -17.575 -0.206 5.219 0.332 2.410 0.339 42.487 42.067
40.000 -16.726 -0.220 -16.789 -0.205 -17.536 -0.063 -17.602 -0.058 -17.788 -0.092 -17.592 -0.217 5.096 0.303 2.524 0.340 42.486 42.042
41.000 -16.673 -0.215 -16.737 -0.202 -17.508 -0.069 -17.576 -0.064 -17.784 -0.096 -17.607 -0.224 4.960 0.270 2.652 0.336 42.482 42.006
42.000 -16.605 -0.207 -16.671 -0.194 -17.468 -0.075 -17.540 -0.071 -17.773 -0.096 -17.619 -0.224 4.818 0.236 2.790 0.328 42.476 41.961
43.000 -16.526 -0.196 -16.593 -0.184 -17.419 -0.080 -17.495 -0.077 -17.755 -0.091 -17.626 -0.219 4.679 0.203 2.933 0.314 42.468 41.909
44.000 -16.441 -0.184 -16.510 -0.173 -17.364 -0.083 -17.445 -0.079 -17.733 -0.081 -17.630 -0.209 4.547 0.174 3.079 0.297 42.461 41.852
45.000 -16.358 -0.170 -16.428 -0.160 -17.308 -0.084 -17.393 -0.079 -17.707 -0.067 -17.629 -0.197 4.428 0.149 3.224 0.277 42.454 41.793
46.000 -16.283 -0.156 -16.355 -0.148 -17.255 -0.082 -17.344 -0.077 -17.680 -0.054 -17.624 -0.186 4.327 0.128 3.357 0.256 42.449 41.735
47.000 -16.224 -0.143 -16.296 -0.136 -17.212 -0.080 -17.302 -0.075 -17.656 -0.047 -17.618 -0.179 4.254 0.112 3.453 0.238 42.444 41.684
48.000 -16.185 -0.131 -16.258 -0.124 -17.180 -0.076 -17.272 -0.072 -17.636 -0.047 -17.609 -0.176 4.217 0.102 3.489 0.225 42.438 41.647
49.000 -16.170 -0.120 -16.242 -0.114 -17.162 -0.072 -17.255 -0.069 -17.621 -0.052 -17.599 -0.176 4.214 0.097 3.469 0.216 42.432 41.621
50.000 -16.178 -0.111 -16.249 -0.105 -17.159 -0.067 -17.250 -0.065 -17.611 -0.056 -17.587 -0.176 4.238 0.094 3.405 0.207 42.426 41.604
51.000 -16.206 -0.104 -16.277 -0.098 -17.166 -0.063 -17.255 -0.060 -17.604 -0.057 -17.571 -0.176 4.290 0.094 3.305 0.198 42.421 41.593
52.000 -16.251 -0.102 -16.319 -0.095 -17.182 -0.057 -17.268 -0.055 -17.597 -0.056 -17.551 -0.178 4.367 0.098 3.171 0.191 42.416 41.593
53.000 -16.305 -0.104 -16.371 -0.098 -17.201 -0.052 -17.282 -0.049 -17.588 -0.059 -17.524 -0.185 4.469 0.107 3.007 0.189 42.410 41.609
54.000 -16.361 -0.114 -16.425 -0.106 -17.219 -0.046 -17.296 -0.044 -17.574 -0.070 -17.490 -0.200 4.593 0.123 2.826 0.194 42.404 41.645
55.000 -16.415 -0.130 -16.476 -0.122 -17.232 -0.042 -17.304 -0.040 -17.554 -0.087 -17.449 -0.222 4.730 0.145 2.641 0.202 42.396 41.689
56.000 -16.460 -0.153 -16.519 -0.143 -17.238 -0.042 -17.304 -0.042 -17.527 -0.109 -17.401 -0.248 4.878 0.171 2.457 0.207 42.387 41.728
57.000 -16.495 -0.181 -16.551 -0.169 -17.234 -0.048 -17.297 -0.048 -17.494 -0.130 -17.350 -0.273 5.034 0.198 2.274 0.210 42.374 41.759
58.000 -16.516 -0.210 -16.571 -0.197 -17.224 -0.059 -17.282 -0.059 -17.458 -0.149 -17.298 -0.292 5.186 0.226 2.110 0.210 42.361 41.783
59.000 -16.525 -0.240 -16.578 -0.225 -17.207 -0.073 -17.262 -0.073 -17.420 -0.162 -17.249 -0.303 5.329 0.254 1.966 0.208 42.347 41.801
60.000 -16.523 -0.266 -16.574 -0.250 -17.186 -0.087 -17.239 -0.086 -17.386 -0.169 -17.206 -0.302 5.449 0.279 1.851 0.205 42.333 41.813
61.000 -16.510 -0.288 -16.561 -0.271 -17.164 -0.100 -17.216 -0.097 -17.357 -0.169 -17.172 -0.290 5.545 0.301 1.761 0.203 42.320 41.820
62.000 -16.489 -0.303 -16.540 -0.286 -17.142 -0.109 -17.194 -0.105 -17.334 -0.163 -17.149 -0.269 5.598 0.317 1.705 0.202 42.308 41.824
63.000 -16.459 -0.311 -16.510 -0.294 -17.120 -0.114 -17.173 -0.109 -17.318 -0.153 -17.137 -0.240 5.614 0.327 1.676 0.202 42.298 41.824
64.000 -16.420 -0.313 -16.472 -0.296 -17.097 -0.115 -17.152 -0.109 -17.308 -0.138 -17.133 -0.208 5.594 0.332 1.670 0.204 42.289 41.821
65.000 -16.371 -0.310 -16.425 -0.293 -17.071 -0.113 -17.128 -0.105 -17.299 -0.122 -17.135 -0.178 5.549 0.332 1.679 0.206 42.280 41.815
66.000 -16.311 -0.303 -16.367 -0.286 -17.039 -0.108 -17.100 -0.099 -17.290 -0.106 -17.139 -0.154 5.439 0.321 1.730 0.210 42.271 41.801
67.000 -16.240 -0.293 -16.297 -0.276 -16.998 -0.101 -17.062 -0.092 -17.275 -0.091 -17.140 -0.139 5.299 0.302 1.803 0.215 42.262 41.780
68.000 -16.155 -0.280 -16.214 -0.264 -16.945 -0.095 -17.014 -0.085 -17.251 -0.079 -17.134 -0.134 5.127 0.274 1.902 0.218 42.251 41.747
69.000 -16.059 -0.265 -16.120 -0.250 -16.881 -0.090 -16.954 -0.081 -17.215 -0.072 -17.119 -0.133 4.953 0.243 2.007 0.218 42.237 41.704
70.000 -15.954 -0.248 -16.017 -0.234 -16.805 -0.088 -16.881 -0.080 -17.166 -0.070 -17.091 -0.133 4.801 0.213 2.091 0.213 42.219 41.650
71.000 -15.845 -0.231 -15.909 -0.218 -16.719 -0.090 -16.799 -0.083 -17.105 -0.073 -17.052 -0.130 4.683 0.189 2.137 0.203 42.195 41.591
72.000 -15.736 -0.216 -15.801 -0.204 -16.627 -0.095 -16.710 -0.090 -17.035 -0.077 -17.002 -0.123 4.601 0.169 2.142 0.189 42.166 41.526
73.000 -15.635 -0.208 -15.700 -0.197 -16.534 -0.103 -16.619 -0.099 -16.959 -0.082 -16.944 -0.115 4.549 0.153 2.112 0.172 42.134 41.459
74.000 -15.546 -0.213 -15.611 -0.202 -16.445 -0.112 -16.531 -0.108 -16.881 -0.085 -16.882 -0.114 4.517 0.140 2.068 0.157 42.103 41.396
75.000 -15.476 -0.234 -15.540 -0.223 -16.366 -0.122 -16.451 -0.116 -16.805 -0.089 -16.819 -0.133 4.492 0.128 2.030 0.142 42.077 41.335
76.000 -15.429 -0.269 -15.491 -0.257 -16.299 -0.133 -16.383 -0.124 -16.735 -0.101 -16.757 -0.176 4.486 0.113 1.981 0.124 42.054 41.260
77.000 -15.406 -0.314 -15.466 -0.300 -16.248 -0.149 -16.329 -0.137 -16.673 -0.133 -16.699 -0.244 4.522 0.098 1.896 0.103 42.030 41.172
78.000 -15.407 -0.368 -15.464 -0.353 -16.212 -0.179 -16.290 -0.167 -16.619 -0.190 -16.646 -0.334 4.605 0.086 1.780 0.083 42.006 41.085
79.000 -15.428 -0.433 -15.482 -0.417 -16.189 -0.234 -16.263 -0.224 -16.573 -0.273 -16.597 -0.442 4.722 0.077 1.652 0.067 41.986 41.003
