"Time (MJD)" PAN-STARRS/PS1.g PAN-STARRS/PS1.g_err PAN-STARRS/PS1.i PAN-STARRS/PS1.i_err PAN-STARRS/PS1.r PAN-STARRS/PS1.r_err PAN-STARRS/PS1.z PAN-STARRS/PS1.z_err Palomar/ZTF.g Palomar/ZTF.g_err Palomar/ZTF.r Palomar/ZTF.r_err "Temp./1e3 (K)" "Temp. Err." "Radius/1e15 (cm)" "Radius Err." "Log10(Bol. Lum)" "Log10(Bol. Err)"
-8.000 -18.677 -0.014 -18.589 -0.028 -18.234 -0.039 -18.286 -0.020 -18.258 -0.252 -17.266 -1.563 12.130 2.448 0.947 0.242 43.141 43.122
-7.000 -18.819 -0.009 -18.735 -0.020 -18.385 -0.029 -18.431 -0.013 -18.323 -0.181 -17.350 -1.491 20.740 2.215 0.571 0.056 43.633 43.305
-6.000 -18.928 -0.009 -18.849 -0.014 -18.507 -0.021 -18.549 -0.011 -18.375 -0.117 -17.430 -1.414 19.898 2.179 0.623 0.063 43.637 43.321
-5.000 -19.008 -0.010 -18.934 -0.010 -18.603 -0.017 -18.642 -0.012 -18.415 -0.061 -17.509 -1.333 18.931 2.076 0.675 0.071 43.621 43.307
-4.000 -19.062 -0.011 -18.992 -0.008 -18.675 -0.015 -18.712 -0.013 -18.444 -0.022 -17.584 -1.248 18.066 1.583 0.724 0.062 43.600 43.191
-3.000 -19.093 -0.011 -19.027 -0.008 -18.725 -0.014 -18.762 -0.013 -18.464 -0.039 -17.655 -1.158 17.425 1.571 0.764 0.069 43.584 43.189
-2.000 -19.106 -0.010 -19.042 -0.009 -18.757 -0.016 -18.793 -0.012 -18.476 -0.070 -17.723 -1.065 16.470 1.369 0.819 0.071 43.546 43.120
-1.000 -19.102 -0.008 -19.042 -0.011 -18.772 -0.019 -18.808 -0.010 -18.481 -0.096 -17.787 -0.970 15.630 1.077 0.870 0.064 43.508 43.003
-0.000 -19.087 -0.007 -19.029 -0.013 -18.775 -0.023 -18.812 -0.009 -18.480 -0.114 -17.847 -0.872 14.918 0.786 0.915 0.053 43.470 42.852
1.000 -19.062 -0.006 -19.006 -0.016 -18.767 -0.027 -18.805 -0.008 -18.475 -0.126 -17.903 -0.773 14.304 0.565 0.952 0.043 43.432 42.692
2.000 -19.030 -0.005 -18.977 -0.017 -18.751 -0.031 -18.791 -0.007 -18.466 -0.132 -17.953 -0.674 13.769 0.429 0.984 0.036 43.395 42.554
3.000 -18.994 -0.005 -18.942 -0.019 -18.730 -0.034 -18.772 -0.006 -18.455 -0.132 -17.999 -0.576 13.298 0.355 1.012 0.032 43.358 42.453
4.000 -18.955 -0.005 -18.904 -0.020 -18.706 -0.036 -18.749 -0.006 -18.442 -0.128 -18.040 -0.480 12.878 0.319 1.036 0.031 43.323 42.386
5.000 -18.915 -0.006 -18.865 -0.020 -18.679 -0.038 -18.725 -0.007 -18.428 -0.120 -18.075 -0.387 12.496 0.303 1.058 0.032 43.289 42.346
6.000 -18.873 -0.006 -18.824 -0.021 -18.651 -0.039 -18.700 -0.007 -18.414 -0.109 -18.104 -0.299 12.141 0.303 1.079 0.034 43.256 42.328
7.000 -18.832 -0.006 -18.782 -0.021 -18.623 -0.038 -18.675 -0.007 -18.399 -0.097 -18.128 -0.216 11.809 0.318 1.100 0.038 43.224 42.333
8.000 -18.791 -0.007 -18.740 -0.020 -18.595 -0.037 -18.651 -0.008 -18.384 -0.083 -18.147 -0.141 11.504 0.354 1.119 0.045 43.194 42.363
9.000 -18.749 -0.008 -18.697 -0.020 -18.568 -0.035 -18.627 -0.009 -18.369 -0.069 -18.160 -0.077 11.269 0.425 1.131 0.057 43.167 42.426
10.000 -18.708 -0.009 -18.654 -0.020 -18.540 -0.032 -18.605 -0.010 -18.353 -0.056 -18.167 -0.039 11.188 0.526 1.122 0.071 43.148 42.503
11.000 -18.667 -0.010 -18.610 -0.020 -18.513 -0.028 -18.584 -0.011 -18.338 -0.045 -18.170 -0.060 10.799 0.514 1.158 0.076 43.114 42.477
12.000 -18.625 -0.011 -18.565 -0.020 -18.485 -0.026 -18.563 -0.012 -18.322 -0.035 -18.169 -0.095 10.541 0.546 1.177 0.085 43.086 42.489
13.000 -18.583 -0.012 -18.520 -0.020 -18.457 -0.026 -18.543 -0.014 -18.305 -0.029 -18.163 -0.124 10.344 0.575 1.187 0.093 43.061 42.495
14.000 -18.542 -0.012 -18.473 -0.020 -18.428 -0.029 -18.522 -0.015 -18.288 -0.025 -18.154 -0.144 10.125 0.582 1.203 0.099 43.035 42.486
15.000 -18.500 -0.013 -18.426 -0.020 -18.398 -0.035 -18.502 -0.016 -18.271 -0.024 -18.141 -0.155 9.872 0.580 1.227 0.105 43.008 42.472
16.000 -18.459 -0.014 -18.379 -0.020 -18.367 -0.045 -18.480 -0.017 -18.253 -0.025 -18.127 -0.156 9.614 0.578 1.255 0.113 42.982 42.460
17.000 -18.419 -0.014 -18.331 -0.019 -18.334 -0.055 -18.459 -0.018 -18.235 -0.025 -18.111 -0.148 9.377 0.580 1.281 0.122 42.956 42.450
18.000 -18.380 -0.014 -18.285 -0.019 -18.299 -0.068 -18.437 -0.019 -18.217 -0.025 -18.095 -0.132 9.171 0.585 1.304 0.130 42.933 42.443
19.000 -18.343 -0.015 -18.240 -0.018 -18.264 -0.080 -18.414 -0.020 -18.199 -0.025 -18.078 -0.109 8.998 0.589 1.320 0.138 42.911 42.436
20.000 -18.308 -0.015 -18.197 -0.017 -18.228 -0.094 -18.391 -0.020 -18.182 -0.024 -18.062 -0.080 8.858 0.590 1.331 0.143 42.891 42.425
21.000 -18.276 -0.015 -18.156 -0.016 -18.192 -0.107 -18.369 -0.021 -18.165 -0.023 -18.047 -0.050 8.762 0.577 1.332 0.143 42.872 42.404
22.000 -18.246 -0.015 -18.118 -0.016 -18.156 -0.120 -18.346 -0.021 -18.149 -0.022 -18.034 -0.035 8.682 0.554 1.331 0.138 42.856 42.373
23.000 -18.220 -0.015 -18.083 -0.015 -18.120 -0.133 -18.325 -0.022 -18.134 -0.021 -18.023 -0.057 8.506 0.584 1.359 0.156 42.838 42.392
24.000 -18.196 -0.015 -18.051 -0.015 -18.086 -0.146 -18.305 -0.021 -18.119 -0.020 -18.014 -0.095 8.386 0.599 1.376 0.166 42.824 42.397
25.000 -18.175 -0.015 -18.022 -0.015 -18.054 -0.157 -18.286 -0.021 -18.106 -0.019 -18.007 -0.135 8.325 0.611 1.379 0.172 42.813 42.400
26.000 -18.157 -0.015 -17.996 -0.015 -18.024 -0.168 -18.268 -0.020 -18.094 -0.019 -18.003 -0.174 8.261 0.620 1.385 0.178 42.804 42.401
27.000 -18.140 -0.014 -17.972 -0.015 -17.996 -0.178 -18.253 -0.019 -18.082 -0.019 -18.001 -0.210 8.203 0.629 1.392 0.184 42.796 42.403
28.000 -18.123 -0.014 -17.951 -0.015 -17.972 -0.187 -18.239 -0.018 -18.071 -0.019 -18.001 -0.241 8.151 0.637 1.399 0.189 42.789 42.405
29.000 -18.107 -0.013 -17.930 -0.015 -17.950 -0.195 -18.228 -0.017 -18.060 -0.019 -18.002 -0.267 8.104 0.642 1.406 0.193 42.783 42.406
30.000 -18.091 -0.013 -17.910 -0.015 -17.931 -0.202 -18.218 -0.016 -18.049 -0.019 -18.005 -0.285 8.059 0.642 1.412 0.196 42.778 42.403
31.000 -18.073 -0.013 -17.890 -0.016 -17.915 -0.208 -18.209 -0.015 -18.038 -0.018 -18.009 -0.296 8.016 0.638 1.417 0.196 42.771 42.397
32.000 -18.053 -0.013 -17.870 -0.016 -17.902 -0.212 -18.201 -0.015 -18.026 -0.018 -18.013 -0.300 7.975 0.629 1.420 0.195 42.765 42.386
33.000 -18.031 -0.013 -17.848 -0.017 -17.891 -0.215 -18.194 -0.015 -18.014 -0.017 -18.016 -0.295 7.930 0.616 1.423 0.192 42.757 42.371
34.000 -18.007 -0.014 -17.825 -0.018 -17.883 -0.217 -18.187 -0.016 -18.000 -0.017 -18.019 -0.282 7.886 0.607 1.425 0.190 42.748 42.358
35.000 -17.979 -0.015 -17.800 -0.020 -17.876 -0.217 -18.181 -0.017 -17.986 -0.018 -18.020 -0.261 7.828 0.608 1.431 0.193 42.739 42.353
36.000 -17.949 -0.016 -17.772 -0.022 -17.870 -0.216 -18.173 -0.018 -17.970 -0.021 -18.020 -0.233 7.689 0.608 1.465 0.206 42.728 42.354
37.000 -17.916 -0.018 -17.743 -0.025 -17.865 -0.214 -18.165 -0.020 -17.953 -0.026 -18.018 -0.199 7.518 0.609 1.513 0.224 42.717 42.359
38.000 -17.881 -0.019 -17.712 -0.028 -17.860 -0.210 -18.155 -0.021 -17.935 -0.033 -18.014 -0.160 7.319 0.598 1.578 0.242 42.707 42.359
39.000 -17.845 -0.021 -17.679 -0.031 -17.855 -0.206 -18.144 -0.022 -17.917 -0.041 -18.007 -0.119 7.118 0.570 1.650 0.255 42.697 42.346
40.000 -17.808 -0.022 -17.646 -0.034 -17.850 -0.200 -18.131 -0.022 -17.899 -0.050 -17.998 -0.081 6.948 0.524 1.714 0.255 42.688 42.315
41.000 -17.770 -0.023 -17.611 -0.037 -17.844 -0.193 -18.116 -0.023 -17.880 -0.060 -17.986 -0.061 6.824 0.476 1.758 0.244 42.679 42.274
42.000 -17.734 -0.024 -17.577 -0.040 -17.838 -0.186 -18.099 -0.023 -17.862 -0.070 -17.972 -0.079 6.664 0.464 1.827 0.259 42.671 42.270
43.000 -17.699 -0.024 -17.542 -0.042 -17.830 -0.177 -18.081 -0.023 -17.845 -0.079 -17.956 -0.119 6.506 0.447 1.902 0.273 42.664 42.264
44.000 -17.666 -0.024 -17.508 -0.044 -17.822 -0.168 -18.061 -0.022 -17.828 -0.087 -17.939 -0.164 6.385 0.423 1.959 0.276 42.658 42.245
45.000 -17.635 -0.024 -17.475 -0.046 -17.813 -0.158 -18.039 -0.022 -17.813 -0.094 -17.920 -0.207 6.298 0.399 1.997 0.272 42.650 42.221
46.000 -17.608 -0.023 -17.442 -0.046 -17.803 -0.147 -18.016 -0.021 -17.800 -0.099 -17.900 -0.248 6.255 0.383 2.006 0.265 42.642 42.199
47.000 -17.583 -0.023 -17.410 -0.046 -17.792 -0.136 -17.993 -0.020 -17.787 -0.103 -17.879 -0.283 6.219 0.370 2.011 0.260 42.635 42.180
48.000 -17.562 -0.022 -17.379 -0.046 -17.781 -0.125 -17.969 -0.019 -17.777 -0.105 -17.859 -0.313 6.195 0.364 2.008 0.257 42.626 42.167
49.000 -17.543 -0.021 -17.348 -0.045 -17.769 -0.115 -17.944 -0.019 -17.767 -0.104 -17.838 -0.336 6.201 0.369 1.984 0.257 42.618 42.164
50.000 -17.527 -0.020 -17.318 -0.044 -17.757 -0.105 -17.920 -0.019 -17.759 -0.102 -17.818 -0.352 6.217 0.384 1.952 0.263 42.608 42.171
51.000 -17.512 -0.019 -17.287 -0.042 -17.744 -0.095 -17.896 -0.019 -17.751 -0.097 -17.799 -0.361 6.238 0.410 1.918 0.275 42.599 42.189
52.000 -17.499 -0.019 -17.254 -0.040 -17.731 -0.087 -17.872 -0.019 -17.743 -0.091 -17.781 -0.363 6.254 0.446 1.887 0.293 42.589 42.214
53.000 -17.486 -0.019 -17.221 -0.038 -17.718 -0.079 -17.849 -0.019 -17.734 -0.083 -17.764 -0.358 6.257 0.487 1.864 0.316 42.579 42.243
54.000 -17.473 -0.020 -17.185 -0.036 -17.704 -0.073 -17.826 -0.019 -17.725 -0.074 -17.748 -0.346 6.239 0.529 1.851 0.342 42.568 42.269
55.000 -17.459 -0.020 -17.147 -0.035 -17.691 -0.068 -17.804 -0.019 -17.715 -0.065 -17.733 -0.329 6.202 0.565 1.850 0.367 42.557 42.289
56.000 -17.443 -0.021 -17.106 -0.034 -17.677 -0.065 -17.783 -0.019 -17.702 -0.055 -17.720 -0.307 6.153 0.590 1.855 0.388 42.546 42.300
57.000 -17.425 -0.022 -17.062 -0.034 -17.663 -0.062 -17.763 -0.018 -17.688 -0.046 -17.708 -0.282 6.105 0.605 1.859 0.400 42.534 42.301
58.000 -17.403 -0.023 -17.014 -0.035 -17.648 -0.060 -17.743 -0.018 -17.672 -0.038 -17.697 -0.253 6.071 0.612 1.853 0.402 42.522 42.294
59.000 -17.379 -0.024 -16.964 -0.036 -17.633 -0.058 -17.724 -0.018 -17.653 -0.032 -17.687 -0.223 6.050 0.617 1.839 0.398 42.509 42.283
60.000 -17.352 -0.026 -16.911 -0.038 -17.618 -0.056 -17.705 -0.018 -17.632 -0.029 -17.677 -0.192 6.031 0.623 1.824 0.395 42.497 42.274
61.000 -17.322 -0.027 -16.855 -0.041 -17.601 -0.054 -17.686 -0.019 -17.609 -0.027 -17.667 -0.161 5.999 0.631 1.819 0.399 42.485 42.269
62.000 -17.288 -0.028 -16.798 -0.044 -17.584 -0.052 -17.668 -0.020 -17.584 -0.028 -17.658 -0.132 5.953 0.642 1.824 0.411 42.474 42.269
63.000 -17.253 -0.030 -16.740 -0.048 -17.565 -0.049 -17.650 -0.021 -17.558 -0.029 -17.647 -0.104 5.899 0.649 1.834 0.423 42.463 42.267
64.000 -17.215 -0.032 -16.682 -0.052 -17.545 -0.046 -17.633 -0.023 -17.532 -0.030 -17.636 -0.081 5.846 0.649 1.844 0.431 42.452 42.261
65.000 -17.176 -0.033 -16.625 -0.056 -17.524 -0.043 -17.615 -0.024 -17.505 -0.031 -17.624 -0.061 5.797 0.638 1.852 0.429 42.441 42.246
66.000 -17.137 -0.035 -16.569 -0.060 -17.501 -0.040 -17.597 -0.025 -17.479 -0.032 -17.609 -0.048 5.754 0.619 1.857 0.417 42.430 42.224
67.000 -17.098 -0.037 -16.516 -0.064 -17.476 -0.036 -17.579 -0.026 -17.453 -0.033 -17.593 -0.041 5.715 0.603 1.861 0.408 42.420 42.205
68.000 -17.059 -0.038 -16.466 -0.067 -17.450 -0.033 -17.561 -0.026 -17.429 -0.034 -17.573 -0.041 5.678 0.605 1.867 0.415 42.412 42.201
69.000 -17.023 -0.039 -16.421 -0.070 -17.422 -0.031 -17.543 -0.026 -17.406 -0.035 -17.550 -0.045 5.643 0.616 1.873 0.430 42.404 42.206
70.000 -16.989 -0.039 -16.380 -0.073 -17.392 -0.029 -17.524 -0.026 -17.385 -0.036 -17.523 -0.050 5.615 0.627 1.876 0.444 42.397 42.210
71.000 -16.957 -0.039 -16.345 -0.075 -17.360 -0.027 -17.504 -0.025 -17.365 -0.037 -17.492 -0.054 5.597 0.635 1.871 0.453 42.389 42.211
72.000 -16.929 -0.038 -16.315 -0.076 -17.327 -0.027 -17.484 -0.024 -17.347 -0.037 -17.456 -0.057 5.595 0.640 1.856 0.454 42.381 42.207
73.000 -16.903 -0.037 -16.291 -0.077 -17.291 -0.028 -17.464 -0.023 -17.330 -0.037 -17.415 -0.060 5.611 0.644 1.829 0.449 42.373 42.201
74.000 -16.881 -0.035 -16.272 -0.077 -17.253 -0.030 -17.442 -0.022 -17.314 -0.036 -17.368 -0.062 5.644 0.648 1.791 0.439 42.365 42.193
75.000 -16.862 -0.033 -16.257 -0.077 -17.214 -0.032 -17.420 -0.020 -17.297 -0.036 -17.316 -0.064 5.692 0.652 1.747 0.426 42.358 42.184
76.000 -16.844 -0.031 -16.247 -0.077 -17.173 -0.035 -17.396 -0.019 -17.280 -0.035 -17.257 -0.069 5.743 0.655 1.703 0.413 42.352 42.175
77.000 -16.829 -0.029 -16.240 -0.077 -17.131 -0.038 -17.371 -0.018 -17.260 -0.036 -17.192 -0.078 5.785 0.655 1.668 0.401 42.346 42.166
78.000 -16.814 -0.027 -16.236 -0.077 -17.087 -0.042 -17.346 -0.017 -17.239 -0.038 -17.121 -0.093 5.810 0.650 1.645 0.393 42.342 42.158
79.000 -16.800 -0.026 -16.233 -0.077 -17.043 -0.046 -17.319 -0.016 -17.213 -0.041 -17.044 -0.115 5.820 0.644 1.629 0.387 42.336 42.149
80.000 -16.784 -0.026 -16.231 -0.077 -16.997 -0.051 -17.291 -0.016 -17.184 -0.046 -16.961 -0.145 5.825 0.642 1.614 0.383 42.330 42.141
81.000 -16.767 -0.026 -16.227 -0.077 -16.952 -0.056 -17.262 -0.016 -17.150 -0.051 -16.872 -0.183 5.832 0.645 1.594 0.380 42.321 42.134
82.000 -16.746 -0.027 -16.222 -0.077 -16.906 -0.061 -17.233 -0.017 -17.110 -0.056 -16.778 -0.228 5.845 0.654 1.567 0.379 42.310 42.129
83.000 -16.722 -0.029 -16.214 -0.078 -16.861 -0.065 -17.203 -0.018 -17.064 -0.060 -16.680 -0.280 5.859 0.669 1.537 0.379 42.298 42.125
84.000 -16.694 -0.031 -16.202 -0.078 -16.817 -0.070 -17.172 -0.019 -17.012 -0.063 -16.577 -0.340 5.870 0.690 1.507 0.382 42.283 42.123
85.000 -16.660 -0.034 -16.186 -0.078 -16.774 -0.074 -17.142 -0.020 -16.954 -0.064 -16.472 -0.405 5.876 0.723 1.475 0.389 42.267 42.125
86.000 -16.621 -0.039 -16.164 -0.078 -16.734 -0.077 -17.111 -0.023 -16.891 -0.063 -16.364 -0.477 5.888 0.775 1.434 0.402 42.246 42.132
87.000 -16.577 -0.047 -16.137 -0.080 -16.696 -0.079 -17.082 -0.027 -16.822 -0.062 -16.254 -0.553 5.936 0.848 1.368 0.411 42.219 42.137
88.000 -16.526 -0.060 -16.105 -0.084 -16.660 -0.082 -17.053 -0.034 -16.748 -0.063 -16.144 -0.635 6.023 0.924 1.277 0.405 42.184 42.130
89.000 -16.471 -0.076 -16.068 -0.092 -16.628 -0.085 -17.026 -0.045 -16.670 -0.070 -16.035 -0.719 6.105 0.976 1.193 0.390 42.149 42.110
90.000 -16.411 -0.095 -16.027 -0.104 -16.600 -0.090 -17.000 -0.061 -16.589 -0.087 -15.927 -0.807 6.152 1.009 1.132 0.380 42.117 42.089
91.000 -16.346 -0.119 -15.982 -0.120 -16.575 -0.100 -16.976 -0.082 -16.505 -0.116 -15.821 -0.896 6.184 1.041 1.085 0.376 42.089 42.074
92.000 -16.279 -0.145 -15.934 -0.141 -16.554 -0.116 -16.954 -0.109 -16.420 -0.155 -15.719 -0.986 6.222 1.085 1.041 0.376 42.063 42.065
93.000 -16.210 -0.175 -15.884 -0.166 -16.537 -0.140 -16.933 -0.142 -16.335 -0.203 -15.620 -1.076 6.280 1.150 0.992 0.377 42.038 42.061
94.000 -16.141 -0.206 -15.834 -0.194 -16.525 -0.173 -16.915 -0.181 -16.251 -0.260 -15.527 -1.166 6.366 1.238 0.937 0.378 42.011 42.061
95.000 -16.073 -0.238 -15.785 -0.224 -16.516 -0.213 -16.899 -0.227 -16.169 -0.324 -15.439 -1.254 6.484 1.352 0.874 0.376 41.984 42.062
96.000 -16.008 -0.271 -15.738 -0.254 -16.510 -0.261 -16.884 -0.280 -16.089 -0.395 -15.356 -1.339 6.637 1.490 0.808 0.371 41.955 42.064
97.000 -15.946 -0.303 -15.695 -0.284 -16.508 -0.316 -16.871 -0.338 -16.012 -0.473 -15.281 -1.422 6.823 1.651 0.741 0.361 41.928 42.066
98.000 -15.890 -0.334 -15.658 -0.313 -16.509 -0.379 -16.858 -0.403 -15.940 -0.557 -15.211 -1.501 7.042 1.832 0.675 0.348 41.903 42.068
99.000 -15.841 -0.362 -15.626 -0.339 -16.512 -0.447 -16.847 -0.474 -15.872 -0.645 -15.149 -1.577 7.294 2.032 0.614 0.331 41.881 42.071
100.000 -15.799 -0.386 -15.603 -0.362 -16.516 -0.521 -16.835 -0.550 -15.809 -0.737 -15.093 -1.648 7.580 2.251 0.557 0.312 41.864 42.077
101.000 -15.766 -0.406 -15.587 -0.379 -16.521 -0.601 -16.823 -0.631 -15.750 -0.833 -15.044 -1.715 7.891 2.478 0.507 0.293 41.852 42.084
102.000 -15.743 -0.420 -15.580 -0.391 -16.526 -0.684 -16.810 -0.716 -15.697 -0.930 -15.002 -1.778 8.249 2.733 0.462 0.272 41.847 42.096
103.000 -15.729 -0.427 -15.583 -0.396 -16.531 -0.771 -16.796 -0.804 -15.648 -1.028 -14.966 -1.836 8.652 3.013 0.421 0.252 41.850 42.114
104.000 -15.725 -0.428 -15.595 -0.393 -16.535 -0.860 -16.780 -0.895 -15.604 -1.126 -14.936 -1.889 9.108 3.323 0.385 0.232 41.861 42.138
105.000 -15.731 -0.421 -15.615 -0.382 -16.536 -0.951 -16.761 -0.987 -15.565 -1.223 -14.912 -1.937 9.626 3.671 0.352 0.213 41.880 42.169
106.000 -15.747 -0.406 -15.645 -0.363 -16.535 -1.042 -16.739 -1.080 -15.529 -1.317 -14.893 -1.982 10.238 4.094 0.322 0.195 41.909 42.212
107.000 -15.771 -0.385 -15.682 -0.335 -16.532 -1.134 -16.714 -1.172 -15.497 -1.410 -14.879 -2.022 10.957 4.604 0.294 0.178 41.949 42.265
108.000 -15.803 -0.358 -15.726 -0.300 -16.524 -1.224 -16.685 -1.263 -15.468 -1.498 -14.869 -2.058 11.813 5.239 0.269 0.162 42.000 42.332
109.000 -15.841 -0.328 -15.776 -0.260 -16.513 -1.312 -16.653 -1.353 -15.442 -1.582 -14.862 -2.090 12.849 6.050 0.245 0.148 42.065 42.415
110.000 -15.885 -0.299 -15.830 -0.218 -16.498 -1.397 -16.617 -1.439 -15.418 -1.662 -14.859 -2.118 14.116 7.102 0.222 0.134 42.145 42.516
111.000 -15.933 -0.279 -15.887 -0.185 -16.478 -1.480 -16.576 -1.522 -15.396 -1.736 -14.858 -2.144 14.555 6.886 0.219 0.122 42.187 42.528
112.000 -15.983 -0.276 -15.946 -0.177 -16.453 -1.558 -16.532 -1.601 -15.375 -1.806 -14.860 -2.166 15.333 7.071 0.212 0.111 42.246 42.573
