"Time (MJD)" PAN-STARRS/PS1.g PAN-STARRS/PS1.g_err PAN-STARRS/PS1.i PAN-STARRS/PS1.i_err PAN-STARRS/PS1.r PAN-STARRS/PS1.r_err PAN-STARRS/PS1.z PAN-STARRS/PS1.z_err Palomar/ZTF.g Palomar/ZTF.g_err Palomar/ZTF.r Palomar/ZTF.r_err "Temp./1e3 (K)" "Temp. Err." "Radius/1e15 (cm)" "Radius Err." "Log10(Bol. Lum)" "Log10(Bol. Err)"
-6.000 -17.025 -0.012 -17.014 -0.012 -16.863 -0.019 -16.846 -0.015 -16.672 -0.018 -16.263 -0.305 11.099 0.540 0.517 0.033 42.461 41.829
-5.000 -17.211 -0.008 -17.205 -0.011 -17.120 -0.015 -17.109 -0.009 -16.969 -0.034 -16.581 -0.292 10.807 0.093 0.593 0.007 42.534 41.153
-4.000 -17.349 -0.007 -17.347 -0.012 -17.312 -0.015 -17.307 -0.008 -17.200 -0.060 -16.845 -0.288 9.896 0.069 0.725 0.007 42.555 41.095
-3.000 -17.441 -0.007 -17.443 -0.013 -17.447 -0.015 -17.445 -0.008 -17.369 -0.080 -17.055 -0.286 9.320 0.052 0.835 0.007 42.574 41.029
-2.000 -17.495 -0.006 -17.499 -0.012 -17.530 -0.015 -17.531 -0.007 -17.481 -0.093 -17.216 -0.279 8.956 0.039 0.918 0.006 42.587 40.937
-1.000 -17.518 -0.006 -17.524 -0.012 -17.573 -0.014 -17.575 -0.006 -17.545 -0.100 -17.330 -0.263 8.734 0.030 0.970 0.006 42.591 40.846
-0.000 -17.517 -0.005 -17.525 -0.011 -17.584 -0.014 -17.587 -0.006 -17.571 -0.100 -17.403 -0.236 8.606 0.026 0.995 0.005 42.588 40.782
1.000 -17.500 -0.006 -17.511 -0.011 -17.576 -0.012 -17.577 -0.006 -17.568 -0.096 -17.442 -0.196 8.537 0.024 1.003 0.005 42.580 40.749
2.000 -17.475 -0.006 -17.487 -0.011 -17.556 -0.011 -17.556 -0.006 -17.545 -0.088 -17.452 -0.145 8.497 0.024 1.000 0.005 42.570 40.740
3.000 -17.446 -0.006 -17.461 -0.010 -17.534 -0.010 -17.531 -0.007 -17.511 -0.081 -17.439 -0.083 8.459 0.029 0.995 0.006 42.558 40.814
4.000 -17.419 -0.006 -17.436 -0.010 -17.513 -0.009 -17.508 -0.007 -17.470 -0.079 -17.408 -0.018 8.342 0.070 1.008 0.014 42.545 41.183
5.000 -17.394 -0.007 -17.414 -0.011 -17.498 -0.010 -17.490 -0.007 -17.427 -0.087 -17.361 -0.069 8.348 0.029 0.996 0.006 42.536 40.793
6.000 -17.371 -0.008 -17.394 -0.012 -17.490 -0.012 -17.478 -0.008 -17.385 -0.104 -17.304 -0.152 8.261 0.049 1.006 0.010 42.526 41.013
7.000 -17.350 -0.011 -17.377 -0.015 -17.486 -0.015 -17.471 -0.008 -17.346 -0.127 -17.237 -0.236 8.146 0.071 1.024 0.015 42.517 41.176
8.000 -17.329 -0.015 -17.359 -0.018 -17.486 -0.018 -17.469 -0.009 -17.308 -0.154 -17.165 -0.320 8.003 0.096 1.050 0.021 42.508 41.305
9.000 -17.305 -0.019 -17.338 -0.021 -17.487 -0.021 -17.467 -0.011 -17.273 -0.180 -17.089 -0.401 7.832 0.123 1.085 0.029 42.499 41.414
10.000 -17.276 -0.023 -17.312 -0.025 -17.485 -0.024 -17.464 -0.014 -17.239 -0.206 -17.012 -0.476 7.639 0.150 1.126 0.038 42.488 41.505
11.000 -17.240 -0.027 -17.280 -0.028 -17.479 -0.027 -17.457 -0.017 -17.208 -0.228 -16.938 -0.543 7.432 0.174 1.173 0.049 42.476 41.574
12.000 -17.198 -0.030 -17.241 -0.030 -17.468 -0.029 -17.447 -0.020 -17.181 -0.247 -16.870 -0.601 7.215 0.191 1.225 0.060 42.462 41.620
13.000 -17.149 -0.031 -17.194 -0.031 -17.452 -0.031 -17.432 -0.023 -17.158 -0.261 -16.812 -0.649 6.994 0.198 1.282 0.069 42.448 41.643
14.000 -17.095 -0.032 -17.142 -0.031 -17.431 -0.031 -17.415 -0.025 -17.143 -0.271 -16.769 -0.686 6.773 0.195 1.344 0.077 42.432 41.642
15.000 -17.037 -0.031 -17.086 -0.029 -17.407 -0.031 -17.395 -0.026 -17.136 -0.276 -16.742 -0.712 6.553 0.181 1.412 0.080 42.418 41.619
16.000 -16.978 -0.029 -17.028 -0.027 -17.383 -0.030 -17.376 -0.026 -17.141 -0.277 -16.734 -0.726 6.339 0.159 1.486 0.080 42.405 41.573
17.000 -16.920 -0.025 -16.971 -0.023 -17.358 -0.027 -17.359 -0.025 -17.157 -0.273 -16.747 -0.730 6.134 0.132 1.568 0.075 42.394 41.505
18.000 -16.865 -0.022 -16.916 -0.019 -17.336 -0.024 -17.344 -0.023 -17.184 -0.265 -16.780 -0.724 5.942 0.103 1.656 0.067 42.386 41.414
19.000 -16.814 -0.018 -16.865 -0.015 -17.317 -0.020 -17.333 -0.020 -17.223 -0.254 -16.830 -0.708 5.766 0.077 1.748 0.056 42.381 41.301
20.000 -16.768 -0.016 -16.818 -0.012 -17.300 -0.016 -17.325 -0.017 -17.270 -0.241 -16.895 -0.683 5.607 0.055 1.842 0.044 42.378 41.170
21.000 -16.725 -0.014 -16.774 -0.011 -17.286 -0.013 -17.319 -0.014 -17.323 -0.225 -16.969 -0.651 5.466 0.039 1.936 0.034 42.377 41.032
22.000 -16.685 -0.013 -16.733 -0.011 -17.272 -0.011 -17.314 -0.012 -17.377 -0.208 -17.047 -0.610 5.343 0.029 2.026 0.028 42.377 40.918
23.000 -16.647 -0.013 -16.694 -0.012 -17.259 -0.010 -17.309 -0.010 -17.429 -0.190 -17.123 -0.563 5.233 0.025 2.111 0.026 42.377 40.871
24.000 -16.609 -0.013 -16.655 -0.013 -17.243 -0.010 -17.301 -0.009 -17.475 -0.171 -17.189 -0.510 5.135 0.027 2.192 0.029 42.377 40.903
25.000 -16.570 -0.013 -16.616 -0.013 -17.225 -0.011 -17.290 -0.009 -17.510 -0.153 -17.242 -0.452 5.047 0.030 2.267 0.035 42.376 40.966
26.000 -16.530 -0.013 -16.575 -0.013 -17.205 -0.011 -17.276 -0.008 -17.534 -0.134 -17.276 -0.390 4.968 0.034 2.334 0.042 42.374 41.029
27.000 -16.489 -0.014 -16.534 -0.014 -17.182 -0.011 -17.258 -0.008 -17.544 -0.117 -17.289 -0.324 4.897 0.039 2.394 0.049 42.371 41.083
28.000 -16.448 -0.014 -16.493 -0.014 -17.159 -0.011 -17.238 -0.007 -17.541 -0.102 -17.280 -0.257 4.833 0.043 2.446 0.057 42.367 41.137
29.000 -16.407 -0.014 -16.453 -0.014 -17.135 -0.010 -17.217 -0.006 -17.525 -0.090 -17.249 -0.190 4.779 0.051 2.488 0.069 42.362 41.209
30.000 -16.368 -0.014 -16.415 -0.015 -17.114 -0.010 -17.197 -0.007 -17.499 -0.083 -17.200 -0.125 4.742 0.072 2.509 0.100 42.356 41.355
31.000 -16.334 -0.015 -16.382 -0.015 -17.096 -0.011 -17.179 -0.008 -17.464 -0.080 -17.135 -0.065 4.768 0.143 2.441 0.194 42.341 41.641
32.000 -16.304 -0.015 -16.355 -0.016 -17.083 -0.012 -17.164 -0.010 -17.425 -0.080 -17.059 -0.022 5.208 0.358 1.896 0.316 42.275 41.910
33.000 -16.281 -0.016 -16.334 -0.017 -17.075 -0.013 -17.154 -0.011 -17.382 -0.082 -16.978 -0.048 4.908 0.280 2.206 0.331 42.304 41.880
34.000 -16.265 -0.018 -16.320 -0.019 -17.072 -0.015 -17.147 -0.013 -17.339 -0.083 -16.896 -0.087 4.767 0.224 2.383 0.304 42.320 41.821
35.000 -16.255 -0.020 -16.312 -0.021 -17.072 -0.016 -17.144 -0.014 -17.297 -0.083 -16.820 -0.118 4.725 0.216 2.439 0.305 42.325 41.816
36.000 -16.249 -0.023 -16.309 -0.024 -17.074 -0.017 -17.143 -0.015 -17.257 -0.080 -16.754 -0.140 4.723 0.229 2.441 0.321 42.325 41.840
37.000 -16.247 -0.025 -16.310 -0.026 -17.077 -0.017 -17.141 -0.015 -17.220 -0.075 -16.701 -0.152 4.748 0.252 2.407 0.341 42.322 41.871
38.000 -16.247 -0.028 -16.311 -0.028 -17.076 -0.017 -17.136 -0.015 -17.186 -0.068 -16.665 -0.156 4.791 0.280 2.350 0.359 42.316 41.902
39.000 -16.245 -0.030 -16.311 -0.030 -17.072 -0.017 -17.128 -0.014 -17.154 -0.058 -16.648 -0.151 4.851 0.309 2.271 0.370 42.308 41.925
40.000 -16.242 -0.031 -16.309 -0.031 -17.062 -0.016 -17.115 -0.014 -17.125 -0.047 -16.649 -0.140 4.931 0.339 2.168 0.371 42.297 41.939
41.000 -16.234 -0.031 -16.302 -0.031 -17.047 -0.015 -17.096 -0.013 -17.099 -0.036 -16.669 -0.123 5.035 0.368 2.044 0.360 42.282 41.943
42.000 -16.222 -0.031 -16.290 -0.030 -17.025 -0.013 -17.072 -0.012 -17.075 -0.026 -16.706 -0.102 5.171 0.396 1.897 0.337 42.263 41.935
43.000 -16.205 -0.031 -16.274 -0.029 -17.000 -0.012 -17.044 -0.011 -17.054 -0.018 -16.758 -0.078 5.320 0.412 1.751 0.302 42.243 41.909
44.000 -16.184 -0.029 -16.254 -0.028 -16.973 -0.012 -17.015 -0.011 -17.035 -0.013 -16.821 -0.054 5.447 0.407 1.635 0.262 42.225 41.866
45.000 -16.159 -0.028 -16.231 -0.026 -16.946 -0.012 -16.986 -0.011 -17.019 -0.012 -16.891 -0.032 5.478 0.387 1.590 0.238 42.210 41.825
46.000 -16.133 -0.026 -16.207 -0.024 -16.923 -0.013 -16.961 -0.011 -17.006 -0.014 -16.966 -0.017 5.491 0.338 1.556 0.201 42.196 41.748
47.000 -16.107 -0.023 -16.183 -0.022 -16.904 -0.013 -16.940 -0.012 -16.996 -0.014 -17.039 -0.026 5.219 0.253 1.734 0.190 42.202 41.668
48.000 -16.082 -0.021 -16.160 -0.020 -16.892 -0.014 -16.927 -0.012 -16.988 -0.014 -17.106 -0.043 5.080 0.221 1.835 0.190 42.204 41.635
49.000 -16.058 -0.019 -16.140 -0.019 -16.887 -0.015 -16.920 -0.012 -16.981 -0.014 -17.165 -0.058 5.024 0.214 1.870 0.194 42.201 41.630
50.000 -16.036 -0.018 -16.122 -0.017 -16.889 -0.015 -16.920 -0.012 -16.974 -0.013 -17.210 -0.071 4.998 0.220 1.882 0.203 42.197 41.643
51.000 -16.017 -0.017 -16.107 -0.016 -16.896 -0.015 -16.925 -0.012 -16.966 -0.012 -17.240 -0.080 4.973 0.235 1.898 0.222 42.196 41.674
52.000 -15.999 -0.016 -16.094 -0.016 -16.907 -0.014 -16.933 -0.011 -16.954 -0.012 -17.252 -0.084 4.935 0.259 1.931 0.253 42.198 41.724
53.000 -15.983 -0.015 -16.082 -0.016 -16.919 -0.014 -16.942 -0.010 -16.939 -0.013 -17.247 -0.084 4.869 0.283 2.004 0.298 42.206 41.783
54.000 -15.966 -0.015 -16.070 -0.015 -16.928 -0.013 -16.949 -0.010 -16.918 -0.017 -17.225 -0.080 4.763 0.294 2.132 0.347 42.222 41.833
55.000 -15.949 -0.015 -16.056 -0.015 -16.934 -0.013 -16.952 -0.009 -16.892 -0.022 -17.189 -0.073 4.644 0.284 2.290 0.382 42.240 41.857
56.000 -15.931 -0.015 -16.041 -0.015 -16.935 -0.013 -16.950 -0.009 -16.863 -0.028 -17.142 -0.063 4.553 0.267 2.421 0.397 42.254 41.860
57.000 -15.912 -0.015 -16.025 -0.016 -16.929 -0.013 -16.942 -0.010 -16.831 -0.035 -17.088 -0.051 4.518 0.260 2.464 0.402 42.256 41.857
58.000 -15.892 -0.017 -16.007 -0.017 -16.918 -0.013 -16.929 -0.011 -16.799 -0.043 -17.033 -0.039 4.552 0.275 2.395 0.405 42.244 41.863
59.000 -15.873 -0.019 -15.988 -0.018 -16.902 -0.013 -16.912 -0.012 -16.770 -0.051 -16.980 -0.027 4.701 0.319 2.167 0.393 42.213 41.869
60.000 -15.855 -0.021 -15.971 -0.021 -16.883 -0.013 -16.893 -0.012 -16.747 -0.058 -16.935 -0.017 4.950 0.370 1.865 0.342 42.173 41.848
61.000 -15.840 -0.025 -15.955 -0.023 -16.864 -0.012 -16.875 -0.013 -16.732 -0.063 -16.900 -0.014 5.146 0.404 1.680 0.300 42.149 41.827
62.000 -15.829 -0.028 -15.943 -0.026 -16.846 -0.013 -16.858 -0.013 -16.727 -0.066 -16.878 -0.019 5.061 0.420 1.759 0.344 42.160 41.870
63.000 -15.823 -0.031 -15.935 -0.029 -16.832 -0.013 -16.846 -0.013 -16.732 -0.067 -16.869 -0.031 4.881 0.397 1.937 0.390 42.181 41.895
64.000 -15.821 -0.033 -15.932 -0.031 -16.823 -0.014 -16.840 -0.014 -16.748 -0.066 -16.873 -0.046 4.736 0.357 2.100 0.405 42.199 41.889
65.000 -15.825 -0.035 -15.934 -0.033 -16.819 -0.015 -16.839 -0.014 -16.772 -0.062 -16.887 -0.065 4.644 0.322 2.214 0.400 42.211 41.870
66.000 -15.831 -0.036 -15.939 -0.035 -16.820 -0.016 -16.843 -0.014 -16.801 -0.057 -16.907 -0.086 4.598 0.299 2.280 0.390 42.219 41.852
67.000 -15.840 -0.037 -15.946 -0.036 -16.824 -0.016 -16.850 -0.014 -16.833 -0.050 -16.930 -0.110 4.585 0.288 2.304 0.382 42.223 41.842
68.000 -15.849 -0.037 -15.954 -0.036 -16.830 -0.016 -16.858 -0.014 -16.863 -0.042 -16.951 -0.136 4.597 0.289 2.295 0.377 42.224 41.841
69.000 -15.856 -0.037 -15.960 -0.035 -16.836 -0.015 -16.866 -0.014 -16.888 -0.034 -16.966 -0.162 4.634 0.299 2.252 0.376 42.222 41.847
70.000 -15.859 -0.036 -15.963 -0.034 -16.839 -0.014 -16.871 -0.013 -16.905 -0.027 -16.971 -0.187 4.700 0.318 2.170 0.373 42.214 41.855
71.000 -15.857 -0.035 -15.960 -0.032 -16.838 -0.014 -16.871 -0.013 -16.912 -0.020 -16.966 -0.211 4.794 0.341 2.054 0.360 42.201 41.856
72.000 -15.848 -0.034 -15.952 -0.031 -16.832 -0.013 -16.865 -0.013 -16.908 -0.015 -16.950 -0.233 4.899 0.356 1.925 0.333 42.182 41.837
73.000 -15.833 -0.032 -15.937 -0.029 -16.821 -0.014 -16.854 -0.014 -16.895 -0.012 -16.923 -0.252 4.950 0.352 1.851 0.306 42.166 41.805
74.000 -15.811 -0.031 -15.916 -0.028 -16.805 -0.015 -16.839 -0.015 -16.873 -0.012 -16.889 -0.269 4.913 0.338 1.859 0.301 42.157 41.785
75.000 -15.784 -0.029 -15.890 -0.027 -16.787 -0.017 -16.820 -0.015 -16.847 -0.015 -16.850 -0.283 4.855 0.327 1.894 0.310 42.152 41.780
76.000 -15.753 -0.028 -15.861 -0.026 -16.767 -0.018 -16.799 -0.016 -16.818 -0.017 -16.810 -0.295 4.761 0.317 1.969 0.331 42.152 41.784
77.000 -15.720 -0.027 -15.829 -0.026 -16.747 -0.019 -16.779 -0.015 -16.790 -0.020 -16.773 -0.304 4.709 0.315 2.008 0.347 42.150 41.791
78.000 -15.687 -0.027 -15.798 -0.027 -16.728 -0.019 -16.761 -0.014 -16.766 -0.021 -16.741 -0.312 4.650 0.317 2.059 0.368 42.150 41.803
79.000 -15.656 -0.026 -15.767 -0.027 -16.713 -0.019 -16.746 -0.013 -16.747 -0.022 -16.717 -0.319 4.587 0.319 2.124 0.392 42.153 41.818
80.000 -15.627 -0.026 -15.740 -0.027 -16.701 -0.018 -16.735 -0.012 -16.734 -0.024 -16.702 -0.326 4.504 0.315 2.228 0.420 42.163 41.835
81.000 -15.602 -0.026 -15.717 -0.028 -16.692 -0.017 -16.727 -0.011 -16.727 -0.028 -16.695 -0.334 4.401 0.297 2.378 0.441 42.179 41.841
82.000 -15.582 -0.027 -15.697 -0.028 -16.685 -0.017 -16.722 -0.010 -16.724 -0.035 -16.695 -0.343 4.285 0.262 2.570 0.445 42.200 41.827
83.000 -15.566 -0.027 -15.682 -0.029 -16.680 -0.016 -16.717 -0.011 -16.724 -0.045 -16.699 -0.354 4.188 0.224 2.749 0.426 42.219 41.795
84.000 -15.554 -0.028 -15.670 -0.029 -16.674 -0.016 -16.712 -0.011 -16.723 -0.058 -16.705 -0.367 4.122 0.193 2.879 0.397 42.232 41.754
85.000 -15.545 -0.029 -15.661 -0.030 -16.667 -0.016 -16.705 -0.012 -16.719 -0.071 -16.709 -0.382 4.089 0.170 2.944 0.365 42.237 41.713
86.000 -15.538 -0.030 -15.654 -0.031 -16.656 -0.016 -16.694 -0.013 -16.711 -0.085 -16.710 -0.397 4.075 0.155 2.964 0.338 42.237 41.676
87.000 -15.532 -0.032 -15.647 -0.032 -16.642 -0.017 -16.679 -0.013 -16.696 -0.097 -16.706 -0.412 4.080 0.147 2.938 0.316 42.232 41.645
88.000 -15.526 -0.034 -15.640 -0.034 -16.623 -0.018 -16.659 -0.014 -16.675 -0.106 -16.695 -0.424 4.104 0.145 2.866 0.300 42.220 41.622
89.000 -15.518 -0.037 -15.632 -0.037 -16.601 -0.019 -16.636 -0.015 -16.647 -0.112 -16.679 -0.431 4.141 0.149 2.764 0.293 42.204 41.613
90.000 -15.509 -0.042 -15.621 -0.042 -16.575 -0.020 -16.608 -0.016 -16.615 -0.115 -16.658 -0.433 4.189 0.161 2.644 0.295 42.186 41.619
91.000 -15.496 -0.048 -15.608 -0.047 -16.548 -0.022 -16.580 -0.017 -16.581 -0.113 -16.634 -0.428 4.245 0.182 2.514 0.306 42.165 41.639
92.000 -15.479 -0.056 -15.590 -0.054 -16.520 -0.024 -16.550 -0.019 -16.546 -0.107 -16.610 -0.418 4.308 0.210 2.381 0.325 42.143 41.669
93.000 -15.458 -0.063 -15.569 -0.060 -16.494 -0.026 -16.523 -0.021 -16.514 -0.097 -16.587 -0.401 4.377 0.248 2.247 0.349 42.121 41.705
94.000 -15.432 -0.070 -15.544 -0.067 -16.469 -0.027 -16.497 -0.023 -16.485 -0.085 -16.568 -0.380 4.454 0.293 2.114 0.373 42.098 41.741
95.000 -15.400 -0.077 -15.513 -0.072 -16.446 -0.027 -16.474 -0.024 -16.462 -0.071 -16.554 -0.355 4.543 0.344 1.979 0.393 42.075 41.774
96.000 -15.363 -0.081 -15.477 -0.076 -16.426 -0.027 -16.455 -0.024 -16.444 -0.057 -16.545 -0.328 4.644 0.400 1.844 0.404 42.052 41.798
97.000 -15.320 -0.083 -15.436 -0.078 -16.408 -0.025 -16.438 -0.023 -16.432 -0.043 -16.541 -0.301 4.752 0.453 1.717 0.403 42.030 41.811
98.000 -15.271 -0.083 -15.390 -0.077 -16.389 -0.023 -16.422 -0.021 -16.424 -0.033 -16.541 -0.273 4.840 0.492 1.619 0.394 42.011 41.813
99.000 -15.216 -0.081 -15.338 -0.075 -16.370 -0.021 -16.406 -0.020 -16.417 -0.026 -16.542 -0.245 4.859 0.507 1.586 0.391 41.999 41.809
100.000 -15.155 -0.076 -15.280 -0.070 -16.349 -0.020 -16.387 -0.018 -16.411 -0.024 -16.542 -0.217 4.806 0.501 1.610 0.399 41.993 41.805
101.000 -15.089 -0.070 -15.217 -0.064 -16.323 -0.020 -16.365 -0.018 -16.401 -0.023 -16.538 -0.188 4.650 0.469 1.720 0.426 41.994 41.799
102.000 -15.018 -0.062 -15.148 -0.058 -16.291 -0.020 -16.336 -0.018 -16.386 -0.022 -16.526 -0.156 4.506 0.431 1.823 0.442 41.990 41.780
103.000 -14.943 -0.055 -15.075 -0.051 -16.252 -0.021 -16.301 -0.019 -16.363 -0.021 -16.506 -0.122 4.373 0.389 1.920 0.446 41.982 41.750
104.000 -14.864 -0.049 -14.998 -0.045 -16.205 -0.022 -16.257 -0.020 -16.331 -0.022 -16.474 -0.086 4.245 0.349 2.024 0.453 41.977 41.721
105.000 -14.781 -0.046 -14.917 -0.042 -16.149 -0.022 -16.204 -0.020 -16.289 -0.026 -16.430 -0.052 4.185 0.325 2.049 0.446 41.963 41.691
106.000 -14.697 -0.046 -14.833 -0.042 -16.085 -0.021 -16.143 -0.020 -16.236 -0.033 -16.373 -0.035 4.167 0.318 2.013 0.430 41.940 41.660
107.000 -14.611 -0.050 -14.748 -0.045 -16.012 -0.021 -16.073 -0.020 -16.174 -0.040 -16.303 -0.058 4.015 0.312 2.207 0.507 41.955 41.699
108.000 -14.525 -0.057 -14.661 -0.052 -15.933 -0.021 -15.996 -0.020 -16.103 -0.047 -16.222 -0.095 3.918 0.304 2.320 0.545 41.956 41.706
109.000 -14.439 -0.068 -14.574 -0.063 -15.848 -0.022 -15.913 -0.022 -16.026 -0.051 -16.131 -0.134 3.906 0.308 2.267 0.541 41.931 41.688
110.000 -14.354 -0.084 -14.488 -0.077 -15.759 -0.024 -15.825 -0.024 -15.942 -0.054 -16.031 -0.173 3.950 0.324 2.109 0.514 41.887 41.656
111.000 -14.272 -0.105 -14.403 -0.098 -15.667 -0.028 -15.734 -0.026 -15.856 -0.056 -15.926 -0.212 4.025 0.345 1.918 0.475 41.837 41.617
112.000 -14.192 -0.134 -14.321 -0.125 -15.574 -0.032 -15.642 -0.028 -15.767 -0.063 -15.817 -0.253 4.093 0.361 1.758 0.438 41.791 41.577
113.000 -14.117 -0.170 -14.242 -0.159 -15.480 -0.036 -15.549 -0.030 -15.679 -0.079 -15.707 -0.299 4.125 0.366 1.657 0.412 41.754 41.539
114.000 -14.046 -0.214 -14.168 -0.201 -15.387 -0.041 -15.458 -0.033 -15.591 -0.107 -15.596 -0.352 4.135 0.362 1.587 0.388 41.720 41.500
115.000 -13.980 -0.266 -14.098 -0.251 -15.297 -0.048 -15.368 -0.037 -15.505 -0.145 -15.486 -0.413 4.148 0.356 1.516 0.363 41.685 41.456
116.000 -13.920 -0.326 -14.034 -0.307 -15.209 -0.056 -15.281 -0.043 -15.422 -0.192 -15.379 -0.483 4.173 0.353 1.434 0.336 41.648 41.410
117.000 -13.866 -0.392 -13.976 -0.370 -15.124 -0.068 -15.197 -0.052 -15.340 -0.245 -15.274 -0.562 4.211 0.351 1.347 0.309 41.609 41.362
118.000 -13.819 -0.462 -13.924 -0.438 -15.042 -0.081 -15.116 -0.063 -15.261 -0.304 -15.172 -0.649 4.261 0.352 1.257 0.282 41.569 41.315
119.000 -13.778 -0.536 -13.879 -0.509 -14.964 -0.096 -15.037 -0.076 -15.184 -0.365 -15.072 -0.741 4.321 0.354 1.167 0.256 41.530 41.268
120.000 -13.743 -0.612 -13.839 -0.581 -14.889 -0.112 -14.961 -0.089 -15.108 -0.428 -14.975 -0.837 4.393 0.357 1.079 0.232 41.490 41.221
121.000 -13.715 -0.688 -13.806 -0.654 -14.816 -0.128 -14.888 -0.101 -15.032 -0.491 -14.880 -0.933 4.476 0.362 0.994 0.208 41.451 41.175
122.000 -13.693 -0.762 -13.779 -0.725 -14.747 -0.142 -14.817 -0.112 -14.957 -0.552 -14.787 -1.027 4.571 0.367 0.913 0.187 41.414 41.129
123.000 -13.677 -0.833 -13.758 -0.793 -14.681 -0.155 -14.748 -0.120 -14.882 -0.610 -14.696 -1.117 4.678 0.374 0.835 0.166 41.377 41.085
124.000 -13.667 -0.899 -13.743 -0.857 -14.618 -0.165 -14.683 -0.126 -14.809 -0.664 -14.607 -1.202 4.799 0.383 0.763 0.148 41.342 41.043
125.000 -13.662 -0.961 -13.734 -0.916 -14.560 -0.173 -14.622 -0.128 -14.737 -0.713 -14.521 -1.280 4.932 0.393 0.696 0.131 41.310 41.003
126.000 -13.664 -1.016 -13.731 -0.969 -14.508 -0.177 -14.566 -0.128 -14.668 -0.758 -14.439 -1.350 5.079 0.406 0.635 0.116 41.281 40.968
127.000 -13.673 -1.065 -13.735 -1.016 -14.462 -0.180 -14.517 -0.125 -14.604 -0.797 -14.362 -1.413 5.238 0.422 0.580 0.104 41.256 40.939
128.000 -13.689 -1.107 -13.747 -1.057 -14.426 -0.181 -14.476 -0.120 -14.546 -0.830 -14.292 -1.466 5.277 0.430 0.561 0.101 41.240 40.925
129.000 -13.712 -1.144 -13.766 -1.091 -14.399 -0.181 -14.445 -0.114 -14.497 -0.859 -14.229 -1.512 5.378 0.451 0.531 0.096 41.225 40.919
130.000 -13.743 -1.174 -13.794 -1.121 -14.383 -0.181 -14.425 -0.109 -14.458 -0.883 -14.176 -1.551 5.524 0.479 0.498 0.091 41.215 40.918
131.000 -13.782 -1.199 -13.830 -1.145 -14.379 -0.181 -14.417 -0.104 -14.430 -0.903 -14.133 -1.582 5.760 0.515 0.455 0.082 41.210 40.917
132.000 -13.828 -1.220 -13.873 -1.165 -14.387 -0.182 -14.421 -0.101 -14.413 -0.919 -14.100 -1.607 6.182 0.580 0.397 0.071 41.215 40.929
133.000 -13.880 -1.236 -13.923 -1.180 -14.405 -0.182 -14.436 -0.100 -14.406 -0.932 -14.076 -1.627 6.387 0.635 0.376 0.069 41.225 40.958
134.000 -13.936 -1.249 -13.978 -1.192 -14.432 -0.183 -14.459 -0.099 -14.409 -0.942 -14.062 -1.642 6.589 0.697 0.360 0.068 41.240 40.994
135.000 -13.994 -1.259 -14.034 -1.202 -14.465 -0.184 -14.489 -0.098 -14.419 -0.949 -14.054 -1.654 6.786 0.765 0.346 0.068 41.258 41.035
136.000 -14.049 -1.266 -14.088 -1.209 -14.500 -0.184 -14.520 -0.097 -14.432 -0.955 -14.051 -1.663 6.974 0.836 0.335 0.069 41.277 41.076
137.000 -14.099 -1.271 -14.137 -1.214 -14.531 -0.185 -14.549 -0.097 -14.445 -0.959 -14.048 -1.669 7.150 0.907 0.326 0.069 41.296 41.116
138.000 -14.140 -1.275 -14.177 -1.217 -14.555 -0.186 -14.571 -0.098 -14.452 -0.962 -14.044 -1.673 7.313 0.972 0.317 0.069 41.311 41.148
139.000 -14.167 -1.278 -14.203 -1.220 -14.567 -0.187 -14.581 -0.099 -14.450 -0.964 -14.034 -1.676 7.460 1.027 0.308 0.068 41.322 41.171
140.000 -14.177 -1.280 -14.213 -1.222 -14.561 -0.188 -14.573 -0.100 -14.435 -0.966 -14.015 -1.678 7.591 1.066 0.299 0.067 41.325 41.181
141.000 -14.169 -1.281 -14.203 -1.223 -14.536 -0.189 -14.546 -0.102 -14.402 -0.967 -13.985 -1.680 7.708 1.086 0.288 0.064 41.320 41.175
142.000 -14.139 -1.282 -14.172 -1.224 -14.488 -0.189 -14.497 -0.103 -14.351 -0.967 -13.942 -1.680 7.806 1.081 0.276 0.059 41.305 41.151
143.000 -14.089 -1.282 -14.120 -1.225 -14.417 -0.190 -14.425 -0.104 -14.281 -0.968 -13.886 -1.681 7.894 1.053 0.263 0.054 41.281 41.109
144.000 -14.020 -1.283 -14.049 -1.225 -14.324 -0.193 -14.331 -0.109 -14.191 -0.969 -13.816 -1.682 7.954 0.996 0.249 0.048 41.247 41.046
145.000 -13.933 -1.284 -13.960 -1.226 -14.213 -0.201 -14.219 -0.123 -14.086 -0.970 -13.736 -1.682 8.021 0.922 0.233 0.041 41.205 40.967
146.000 -13.833 -1.286 -13.858 -1.229 -14.087 -0.218 -14.092 -0.149 -13.969 -0.973 -13.647 -1.683 8.087 0.831 0.217 0.034 41.158 40.870
147.000 -13.726 -1.290 -13.748 -1.232 -13.953 -0.246 -13.957 -0.188 -13.845 -0.979 -13.553 -1.685 8.149 0.725 0.202 0.027 41.107 40.755
148.000 -13.616 -1.295 -13.636 -1.239 -13.817 -0.286 -13.821 -0.238 -13.720 -0.988 -13.459 -1.688 8.206 0.608 0.187 0.021 41.055 40.624
149.000 -13.510 -1.303 -13.527 -1.247 -13.687 -0.335 -13.690 -0.296 -13.600 -1.000 -13.369 -1.692 8.257 0.491 0.175 0.016 41.005 40.478
150.000 -13.414 -1.314 -13.429 -1.259 -13.569 -0.390 -13.571 -0.357 -13.491 -1.017 -13.288 -1.697 8.302 0.380 0.164 0.011 40.960 40.320
151.000 -13.333 -1.326 -13.346 -1.272 -13.469 -0.447 -13.471 -0.419 -13.400 -1.036 -13.220 -1.704 8.339 0.286 0.156 0.008 40.923 40.156
152.000 -13.271 -1.340 -13.283 -1.287 -13.393 -0.502 -13.395 -0.478 -13.331 -1.056 -13.168 -1.711 8.368 0.214 0.150 0.006 40.895 40.001
153.000 -13.232 -1.353 -13.243 -1.301 -13.345 -0.551 -13.346 -0.529 -13.286 -1.076 -13.135 -1.717 8.387 0.169 0.146 0.004 40.877 39.879
154.000 -13.216 -1.364 -13.227 -1.313 -13.325 -0.591 -13.327 -0.571 -13.268 -1.093 -13.121 -1.723 8.399 0.151 0.145 0.004 40.870 39.823
155.000 -13.224 -1.373 -13.235 -1.322 -13.335 -0.619 -13.337 -0.600 -13.277 -1.106 -13.128 -1.728 8.403 0.160 0.145 0.004 40.873 39.851
156.000 -13.255 -1.377 -13.267 -1.327 -13.372 -0.633 -13.374 -0.614 -13.310 -1.113 -13.152 -1.730 8.402 0.193 0.147 0.005 40.887 39.948
157.000 -13.305 -1.377 -13.318 -1.327 -13.433 -0.632 -13.434 -0.613 -13.365 -1.112 -13.193 -1.730 8.396 0.249 0.151 0.007 40.910 40.081
158.000 -13.371 -1.372 -13.385 -1.321 -13.512 -0.616 -13.514 -0.596 -13.437 -1.105 -13.246 -1.727 8.387 0.323 0.157 0.009 40.940 40.224
159.000 -13.448 -1.362 -13.463 -1.311 -13.604 -0.585 -13.607 -0.564 -13.521 -1.091 -13.308 -1.722 8.376 0.410 0.164 0.012 40.975 40.363
160.000 -13.529 -1.350 -13.547 -1.298 -13.703 -0.540 -13.706 -0.517 -13.610 -1.071 -13.374 -1.716 8.361 0.504 0.172 0.016 41.012 40.491
161.000 -13.611 -1.335 -13.630 -1.282 -13.802 -0.483 -13.805 -0.458 -13.700 -1.049 -13.441 -1.708 8.344 0.599 0.180 0.019 41.050 40.605
162.000 -13.687 -1.320 -13.707 -1.265 -13.894 -0.418 -13.897 -0.388 -13.783 -1.026 -13.502 -1.700 8.323 0.690 0.189 0.023 41.087 40.703
163.000 -13.753 -1.306 -13.775 -1.250 -13.974 -0.348 -13.977 -0.310 -13.855 -1.004 -13.556 -1.693 8.298 0.769 0.197 0.027 41.119 40.784
164.000 -13.805 -1.294 -13.828 -1.238 -14.037 -0.280 -14.040 -0.231 -13.913 -0.986 -13.598 -1.688 8.270 0.830 0.205 0.031 41.145 40.844
165.000 -13.841 -1.287 -13.864 -1.230 -14.079 -0.227 -14.083 -0.163 -13.951 -0.975 -13.627 -1.684 8.240 0.865 0.210 0.033 41.162 40.881
166.000 -13.857 -1.286 -13.881 -1.228 -14.100 -0.214 -14.103 -0.144 -13.970 -0.973 -13.641 -1.683 8.229 0.881 0.213 0.034 41.170 40.897
167.000 -13.855 -1.291 -13.879 -1.234 -14.096 -0.255 -14.100 -0.200 -13.967 -0.981 -13.638 -1.686 8.259 0.884 0.211 0.034 41.169 40.896
